Model,DPO2002B
Firmware Version,1.52

Point Format,Y,,,
Horizontal Units,S,,,
Horizontal Scale,0.001,,,
Sample Interval,1.92012e-06,,,
Filter Frequency,7e+07,,,
Record Length,5208,,,
Gating,0.0% to 100.0%,,0.0% to 100.0%,
Probe Attenuation,1,,1,
Vertical Units,V,,V,
Vertical Offset,0,,0,
Vertical Scale,0.5,,0.01,
Label,,,,
TIME,CH1,CH1 Peak Detect,CH2,CH2 Peak Detect
-4.380e-03,-0.02,-0.04,0.0194,0.0134
-4.378e-03,-0.02,0,0.0186,0.0242
-4.376e-03,0,-0.04,0.0202,0.013
-4.374e-03,-0.02,0,0.019,0.023
-4.372e-03,-0.02,-0.06,0.0158,0.0134
-4.370e-03,-0.02,0.02,0.0186,0.0226
-4.368e-03,-0.02,-0.06,0.0146,0.0118
-4.367e-03,-0.02,0,0.017,0.0222
-4.365e-03,-0.02,-0.06,0.0146,0.0114
-4.363e-03,-0.02,0,0.017,0.0218
-4.361e-03,-0.02,-0.06,0.0182,0.0102
-4.359e-03,-0.02,0,0.0126,0.0226
-4.357e-03,-0.02,-0.06,0.0142,0.009
-4.355e-03,-0.02,0,0.0154,0.0198
-4.353e-03,-0.02,-0.04,0.0138,0.0086
-4.351e-03,-0.02,0,0.0154,0.019
-4.349e-03,-0.02,-0.06,0.0118,0.0074
-4.347e-03,-0.02,0,0.0118,0.019
-4.345e-03,-0.02,-0.06,0.0146,0.0074
-4.344e-03,-0.02,0,0.0118,0.0174
-4.342e-03,-0.02,-0.06,0.0118,0.0062
-4.340e-03,-0.04,0,0.0122,0.0174
-4.338e-03,-0.02,-0.06,0.011,0.0046
-4.336e-03,-0.02,0,0.0122,0.0174
-4.334e-03,0,-0.06,0.0102,0.0054
-4.332e-03,-0.02,0.02,0.0114,0.015
-4.330e-03,-0.02,-0.06,0.0074,0.0046
-4.328e-03,-0.02,0,0.0106,0.0162
-4.326e-03,-0.02,-0.06,0.009,0.0046
-4.324e-03,-0.02,0,0.0102,0.015
-4.322e-03,-0.02,-0.06,0.0102,0.0034
-4.320e-03,-0.02,0,0.0102,0.0146
-4.319e-03,-0.02,-0.06,0.007,0.0026
-4.317e-03,-0.02,0,0.007,0.0142
-4.315e-03,-0.02,-0.06,0.0062,0.0034
-4.313e-03,-0.02,0.02,0.007,0.0162
-4.311e-03,-0.02,-0.06,0.0082,0.001
-4.309e-03,-0.02,0,0.0042,0.0126
-4.307e-03,-0.02,-0.06,0.0058,0.0018
-4.305e-03,-0.02,0,0.0054,0.0118
-4.303e-03,-0.02,-0.06,0.0078,0.0018
-4.301e-03,-0.02,0,0.0078,0.0114
-4.299e-03,-0.02,-0.06,0.0038,0.0002
-4.297e-03,-0.02,0,0.0058,0.011
-4.296e-03,-0.02,-0.06,0.0042,0.0006
-4.294e-03,-0.02,0,0.0054,0.011
-4.292e-03,-0.02,-0.06,0.0078,0.0014
-4.290e-03,-0.02,0,0.007,0.0122
-4.288e-03,-0.02,-0.06,0.0058,-0.0006
-4.286e-03,-0.02,0,0.0062,0.0098
-4.284e-03,-0.02,-0.06,0.003,-0.0014
-4.282e-03,-0.02,0,0.005,0.0106
-4.280e-03,-0.02,-0.06,0.0046,-0.0006
-4.278e-03,-0.02,0,0.0054,0.0102
-4.276e-03,-0.02,-0.06,0.0042,-0.0002
-4.274e-03,-0.02,0,0.0018,0.0086
-4.272e-03,-0.02,-0.06,0.0062,-0.001
-4.271e-03,-0.02,0,0.0042,0.0098
-4.269e-03,-0.02,-0.06,0.0026,-0.0018
-4.267e-03,-0.02,0,0.0042,0.009
-4.265e-03,-0.04,-0.06,0.0046,-0.0026
-4.263e-03,-0.02,0,0.007,0.0086
-4.261e-03,-0.02,-0.06,0.0018,-0.0018
-4.259e-03,-0.02,0,0.0022,0.0078
-4.257e-03,-0.02,-0.06,0.0054,-0.0018
-4.255e-03,-0.02,0,0.0038,0.0086
-4.253e-03,-0.02,-0.06,0.0014,-0.0014
-4.251e-03,-0.02,0,0.0038,0.0078
-4.249e-03,-0.04,-0.06,-0.001,-0.0026
-4.248e-03,-0.02,0,0.0058,0.0082
-4.246e-03,-0.02,-0.06,0.0018,-0.0042
-4.244e-03,-0.04,0,0.0046,0.0082
-4.242e-03,-0.02,-0.06,-0.0006,-0.003
-4.240e-03,-0.02,0,0.0022,0.007
-4.238e-03,-0.04,-0.06,0.0018,-0.0034
-4.236e-03,-0.04,0,0.0026,0.0074
-4.234e-03,-0.02,-0.06,0.005,-0.0038
-4.232e-03,-0.02,0,0.0006,0.0074
-4.230e-03,-0.02,-0.06,-0.001,-0.0042
-4.228e-03,-0.04,0,0.001,0.0074
-4.226e-03,-0.04,-0.06,-0.0002,-0.0042
-4.224e-03,-0.04,0,0.001,0.007
-4.223e-03,-0.04,-0.06,0.0018,-0.0042
-4.221e-03,-0.02,0,0.0034,0.007
-4.219e-03,-0.04,-0.06,0.0006,-0.0034
-4.217e-03,-0.02,0,-0.001,0.0058
-4.215e-03,-0.04,-0.06,0.0006,-0.0034
-4.213e-03,-0.02,0,0.0014,0.0066
-4.211e-03,-0.02,-0.06,-0.0002,-0.0042
-4.209e-03,-0.02,0,-0.0006,0.0066
-4.207e-03,-0.06,-0.06,-0.0002,-0.0038
-4.205e-03,-0.02,0,0.001,0.0062
-4.203e-03,-0.02,-0.06,-0.0006,-0.005
-4.201e-03,-0.02,0,0.001,0.0062
-4.200e-03,-0.02,-0.06,0.0042,-0.0034
-4.198e-03,-0.04,0,0.0006,0.0062
-4.196e-03,-0.02,-0.06,0.0022,-0.0042
-4.194e-03,-0.02,0,-0.0006,0.0066
-4.192e-03,-0.04,-0.06,0.0002,-0.0054
-4.190e-03,-0.02,0,0.0002,0.0062
-4.188e-03,-0.02,-0.06,0.0002,-0.005
-4.186e-03,-0.02,0,0.0006,0.0054
-4.184e-03,-0.02,-0.06,-0.0002,-0.005
-4.182e-03,-0.02,0,0.0014,0.0058
-4.180e-03,-0.02,-0.06,-0.0006,-0.005
-4.178e-03,-0.04,0,0.0002,0.0058
-4.176e-03,-0.02,-0.06,-0.0006,-0.0042
-4.175e-03,-0.02,0,0.001,0.0062
-4.173e-03,-0.02,-0.06,-0.0006,-0.0046
-4.171e-03,-0.02,0,0.003,0.0046
-4.169e-03,-0.02,-0.06,-0.0014,-0.0054
-4.167e-03,-0.02,0,0.0006,0.0058
-4.165e-03,-0.02,-0.06,-0.0018,-0.0062
-4.163e-03,-0.04,0,0.0022,0.0046
-4.161e-03,-0.04,-0.06,-0.0002,-0.0066
-4.159e-03,-0.02,0,-0.0006,0.005
-4.157e-03,-0.04,-0.06,-0.003,-0.0066
-4.155e-03,-0.04,-0.02,-0.0006,0.0058
-4.153e-03,-0.02,-0.06,-0.0022,-0.0062
-4.152e-03,-0.04,0,0.0018,0.0046
-4.150e-03,-0.02,-0.06,-0.0038,-0.0066
-4.148e-03,-0.02,0,0.001,0.005
-4.146e-03,-0.02,-0.06,-0.001,-0.0062
-4.144e-03,-0.04,-0.02,-0.0022,0.0038
-4.142e-03,-0.04,-0.06,0.0018,-0.0054
-4.140e-03,-0.04,-0.02,0.001,0.0042
-4.138e-03,-0.04,-0.06,0.0026,-0.0058
-4.136e-03,-0.04,-0.02,0.001,0.0042
-4.134e-03,-0.02,-0.06,-0.0018,-0.0058
-4.132e-03,-0.02,-0.02,-0.0006,0.005
-4.130e-03,-0.02,-0.06,-0.0018,-0.0058
-4.128e-03,-0.02,-0.02,-0.001,0.0038
-4.127e-03,-0.02,-0.06,-0.0018,-0.0066
-4.125e-03,-0.04,-0.02,-0.0026,0.005
-4.123e-03,-0.02,-0.06,-0.0006,-0.007
-4.121e-03,-0.04,-0.02,-0.0002,0.0042
-4.119e-03,-0.02,-0.06,-0.0002,-0.0074
-4.117e-03,-0.04,-0.02,-0.001,0.0046
-4.115e-03,-0.04,-0.06,-0.0042,-0.0062
-4.113e-03,-0.04,-0.02,-0.0018,0.0038
-4.111e-03,-0.04,-0.06,-0.0006,-0.0054
-4.109e-03,-0.04,-0.02,0.0002,0.0042
-4.107e-03,-0.02,-0.06,-0.001,-0.0066
-4.105e-03,-0.02,0,0.0014,0.005
-4.104e-03,-0.02,-0.06,-0.0014,-0.0062
-4.102e-03,-0.02,0,0.0018,0.0046
-4.100e-03,-0.02,-0.06,-0.0014,-0.0058
-4.098e-03,-0.04,0,0.0006,0.005
-4.096e-03,-0.02,-0.06,-0.001,-0.0062
-4.094e-03,-0.02,-0.02,-0.001,0.0038
-4.092e-03,-0.06,-0.06,0.0006,-0.0058
-4.090e-03,-0.02,-0.02,-0.0002,0.0042
-4.088e-03,-0.04,-0.06,-0.0042,-0.0054
-4.086e-03,-0.04,-0.02,-0.003,0.0038
-4.084e-03,-0.04,-0.06,0.001,-0.007
-4.082e-03,-0.02,-0.02,0.0014,0.0046
-4.080e-03,-0.04,-0.06,-0.0022,-0.0058
-4.079e-03,-0.04,-0.02,-0.001,0.0038
-4.077e-03,-0.06,-0.06,-0.0026,-0.0074
-4.075e-03,-0.04,0,0.0006,0.0038
-4.073e-03,-0.04,-0.06,0.0006,-0.0066
-4.071e-03,-0.02,-0.02,0.0018,0.0042
-4.069e-03,-0.04,-0.08,-0.0014,-0.0066
-4.067e-03,-0.04,-0.02,-0.0022,0.0042
-4.065e-03,-0.04,-0.08,-0.0022,-0.0074
-4.063e-03,-0.04,-0.02,-0.001,0.0046
-4.061e-03,-0.04,-0.06,-0.0042,-0.0066
-4.059e-03,-0.04,0,-0.0018,0.0034
-4.057e-03,-0.02,-0.06,-0.0002,-0.0062
-4.055e-03,-0.02,0,-0.0014,0.0046
-4.054e-03,-0.04,-0.08,-0.0034,-0.0066
-4.052e-03,-0.04,-0.02,0.0014,0.0042
-4.050e-03,-0.04,-0.08,-0.0018,-0.0074
-4.048e-03,-0.04,-0.02,-0.0026,0.003
-4.046e-03,-0.06,-0.08,-0.0026,-0.0066
-4.044e-03,-0.06,-0.02,-0.0006,0.0042
-4.042e-03,-0.02,-0.06,-0.0014,-0.007
-4.040e-03,-0.04,0,-0.003,0.0042
-4.038e-03,-0.04,-0.06,-0.001,-0.0098
-4.036e-03,-0.04,-0.02,0.0018,0.0046
-4.034e-03,-0.04,-0.08,-0.0002,-0.0062
-4.032e-03,-0.02,-0.02,-0.0006,0.0038
-4.031e-03,-0.04,-0.06,-0.0022,-0.007
-4.029e-03,-0.04,-0.02,0.0006,0.0046
-4.027e-03,-0.04,-0.06,-0.0022,-0.0062
-4.025e-03,-0.04,-0.02,0.0026,0.0046
-4.023e-03,-0.04,-0.06,-0.0006,-0.0062
-4.021e-03,-0.04,0,0.0018,0.003
-4.019e-03,-0.04,-0.08,-0.0014,-0.0062
-4.017e-03,-0.04,-0.02,-0.003,0.005
-4.015e-03,-0.04,-0.08,-0.003,-0.0066
-4.013e-03,-0.06,-0.02,-0.0026,0.0058
-4.011e-03,-0.04,-0.08,-0.0026,-0.0066
-4.009e-03,-0.04,-0.02,-0.0014,0.0042
-4.007e-03,-0.02,-0.06,-0.003,-0.0058
-4.006e-03,-0.04,-0.02,-0.0002,0.005
-4.004e-03,-0.04,-0.08,0.0022,-0.0066
-4.002e-03,-0.04,-0.02,-0.0014,0.0042
-4.000e-03,-0.04,-0.08,0.0018,-0.0062
-3.998e-03,-0.04,-0.02,-0.0042,0.0038
-3.996e-03,-0.02,-0.08,-0.003,-0.0074
-3.994e-03,-0.06,-0.02,-0.001,0.0046
-3.992e-03,-0.04,-0.08,-0.0006,-0.0058
-3.990e-03,-0.06,-0.02,-0.0002,0.0038
-3.988e-03,-0.04,-0.08,-0.0018,-0.0062
-3.986e-03,-0.04,-0.02,-0.0026,0.003
-3.984e-03,-0.04,-0.08,0.001,-0.0062
-3.983e-03,-0.04,-0.02,-0.0018,0.0034
-3.981e-03,-0.06,-0.08,-0.0014,-0.0062
-3.979e-03,-0.04,-0.02,-0.0022,0.0034
-3.977e-03,-0.04,-0.08,-0.0018,-0.0058
-3.975e-03,-0.04,-0.02,-0.0034,0.0042
-3.973e-03,-0.04,-0.08,-0.0018,-0.0062
-3.971e-03,-0.04,-0.02,0.0002,0.0038
-3.969e-03,-0.06,-0.08,-0.0022,-0.0062
-3.967e-03,-0.06,-0.02,-0.0002,0.0058
-3.965e-03,-0.06,-0.08,-0.0022,-0.0058
-3.963e-03,-0.06,-0.02,-0.0038,0.0058
-3.961e-03,-0.06,-0.08,0.0002,-0.0058
-3.959e-03,-0.04,-0.02,-0.0014,0.0034
-3.958e-03,-0.04,-0.08,-0.0014,-0.007
-3.956e-03,-0.04,-0.02,0.0002,0.005
-3.954e-03,-0.04,-0.08,-0.0018,-0.0074
-3.952e-03,-0.04,-0.02,-0.0042,0.0046
-3.950e-03,-0.04,-0.08,0.0002,-0.0058
-3.948e-03,-0.04,-0.02,0.0014,0.0038
-3.946e-03,-0.04,-0.08,-0.0022,-0.0058
-3.944e-03,-0.06,-0.02,-0.0022,0.0054
-3.942e-03,-0.04,-0.08,0.0026,-0.0058
-3.940e-03,-0.04,-0.02,-0.0014,0.0046
-3.938e-03,-0.06,-0.08,-0.0054,-0.007
-3.936e-03,-0.04,-0.02,-0.0006,0.005
-3.935e-03,-0.04,-0.08,-0.0038,-0.0062
-3.933e-03,-0.04,-0.02,-0.0018,0.0042
-3.931e-03,-0.04,-0.08,-0.001,-0.0058
-3.929e-03,-0.02,-0.02,-0.0022,0.0058
-3.927e-03,-0.04,-0.08,0.001,-0.005
-3.925e-03,-0.04,-0.02,0.0002,0.0046
-3.923e-03,-0.06,-0.08,-0.001,-0.0062
-3.921e-03,-0.06,-0.02,-0.0014,0.0046
-3.919e-03,-0.04,-0.08,-0.0006,-0.007
-3.917e-03,-0.02,-0.02,-0.0034,0.0042
-3.915e-03,-0.06,-0.08,-0.0022,-0.0054
-3.913e-03,-0.06,-0.02,0.001,0.005
-3.911e-03,-0.06,-0.08,0.0006,-0.0062
-3.910e-03,-0.06,-0.02,-0.0022,0.0058
-3.908e-03,-0.06,-0.08,-0.0026,-0.0062
-3.906e-03,-0.06,-0.02,-0.0006,0.005
-3.904e-03,-0.06,-0.08,-0.0002,-0.005
-3.902e-03,-0.06,-0.02,-0.0026,0.005
-3.900e-03,-0.04,-0.08,-0.0014,-0.0054
-3.898e-03,-0.06,-0.02,-0.0018,0.0054
-3.896e-03,-0.04,-0.08,-0.0014,-0.0046
-3.894e-03,-0.04,-0.02,0.001,0.0054
-3.892e-03,-0.06,-0.08,0.0022,-0.0058
-3.890e-03,-0.04,-0.02,0.001,0.0058
-3.888e-03,-0.04,-0.08,-0.0006,-0.0054
-3.887e-03,-0.06,-0.02,-0.0014,0.0058
-3.885e-03,-0.06,-0.08,0.0026,-0.005
-3.883e-03,-0.06,-0.02,0.0018,0.007
-3.881e-03,-0.06,-0.08,-0.001,-0.005
-3.879e-03,-0.06,-0.02,-0.0038,0.005
-3.877e-03,-0.04,-0.08,-0.003,-0.0058
-3.875e-03,-0.06,-0.02,0.0006,0.0066
-3.873e-03,-0.06,-0.08,0.0002,-0.0054
-3.871e-03,-0.04,-0.02,-0.0018,0.0062
-3.869e-03,-0.06,-0.08,0.0026,-0.0062
-3.867e-03,-0.04,-0.02,-0.001,0.0058
-3.865e-03,-0.04,-0.08,-0.0014,-0.005
-3.863e-03,-0.02,-0.02,0.0014,0.005
-3.862e-03,-0.04,-0.08,0.0002,-0.005
-3.860e-03,-0.06,-0.02,0.001,0.0058
-3.858e-03,-0.04,-0.08,-0.0006,-0.0054
-3.856e-03,-0.04,-0.02,0.0006,0.0058
-3.854e-03,-0.06,-0.08,-0.0006,-0.0054
-3.852e-03,-0.06,-0.02,0.0006,0.005
-3.850e-03,-0.02,-0.08,0.001,-0.005
-3.848e-03,-0.04,-0.02,0.0014,0.0062
-3.846e-03,-0.06,-0.08,-0.0006,-0.0062
-3.844e-03,-0.06,-0.02,0.003,0.0054
-3.842e-03,-0.04,-0.08,0.001,-0.0042
-3.840e-03,-0.06,-0.02,-0.001,0.005
-3.839e-03,-0.06,-0.08,-0.0018,-0.0066
-3.837e-03,-0.04,-0.02,-0.0002,0.0058
-3.835e-03,-0.04,-0.08,0.0002,-0.0042
-3.833e-03,-0.06,-0.02,-0.0022,0.0046
-3.831e-03,-0.04,-0.08,-0.0006,-0.005
-3.829e-03,-0.06,-0.02,-0.0002,0.0058
-3.827e-03,-0.06,-0.08,0.0006,-0.0046
-3.825e-03,-0.06,-0.02,-0.0006,0.0046
-3.823e-03,-0.04,-0.08,0.001,-0.0058
-3.821e-03,-0.06,-0.02,-0.0042,0.0042
-3.819e-03,-0.06,-0.08,-0.0026,-0.0054
-3.817e-03,-0.06,-0.04,-0.0018,0.0046
-3.815e-03,-0.06,-0.08,0.0018,-0.0054
-3.814e-03,-0.06,-0.02,-0.001,0.0066
-3.812e-03,-0.04,-0.08,-0.0014,-0.0074
-3.810e-03,-0.06,-0.02,-0.0026,0.005
-3.808e-03,-0.06,-0.08,-0.0022,-0.0054
-3.806e-03,-0.06,-0.02,0.0018,0.0054
-3.804e-03,-0.06,-0.08,-0.0002,-0.0058
-3.802e-03,-0.06,-0.02,-0.0006,0.0058
-3.800e-03,-0.04,-0.08,-0.0018,-0.0054
-3.798e-03,-0.06,-0.04,-0.0006,0.005
-3.796e-03,-0.06,-0.08,0.0022,-0.005
-3.794e-03,-0.04,-0.02,-0.0002,0.0046
-3.792e-03,-0.06,-0.08,-0.0026,-0.0058
-3.791e-03,-0.06,-0.02,-0.0026,0.0042
-3.789e-03,-0.06,-0.08,-0.003,-0.0074
-3.787e-03,-0.06,-0.02,-0.0026,0.0046
-3.785e-03,-0.04,-0.08,-0.0006,-0.0058
-3.783e-03,-0.08,-0.02,-0.0022,0.0062
-3.781e-03,-0.06,-0.08,-0.0006,-0.0066
-3.779e-03,-0.06,-0.04,-0.0022,0.0042
-3.777e-03,-0.04,-0.08,0.0006,-0.0058
-3.775e-03,-0.04,-0.02,-0.0022,0.005
-3.773e-03,-0.04,-0.08,-0.0014,-0.0062
-3.771e-03,-0.06,-0.02,-0.0046,0.0038
-3.769e-03,-0.04,-0.08,-0.0022,-0.007
-3.767e-03,-0.06,-0.02,-0.0018,0.0042
-3.766e-03,-0.06,-0.08,-0.0014,-0.0062
-3.764e-03,-0.06,-0.02,-0.0026,0.003
-3.762e-03,-0.06,-0.08,-0.001,-0.0082
-3.760e-03,-0.04,-0.04,-0.001,0.0054
-3.758e-03,-0.06,-0.08,-0.0002,-0.0062
-3.756e-03,-0.06,-0.04,-0.0014,0.0038
-3.754e-03,-0.06,-0.08,-0.0034,-0.0078
-3.752e-03,-0.04,-0.02,-0.0026,0.0038
-3.750e-03,-0.04,-0.08,-0.0018,-0.0062
-3.748e-03,-0.06,-0.02,-0.0022,0.0042
-3.746e-03,-0.06,-0.08,-0.0002,-0.0066
-3.744e-03,-0.06,-0.02,-0.0014,0.0038
-3.743e-03,-0.06,-0.1,-0.0034,-0.0062
-3.741e-03,-0.06,-0.04,0.0006,0.003
-3.739e-03,-0.06,-0.08,-0.0042,-0.0062
-3.737e-03,-0.08,-0.02,-0.0026,0.003
-3.735e-03,-0.06,-0.08,0.0018,-0.0062
-3.733e-03,-0.06,-0.02,-0.0018,0.0042
-3.731e-03,-0.04,-0.08,-0.0018,-0.0066
-3.729e-03,-0.06,-0.02,-0.003,0.0042
-3.727e-03,-0.06,-0.08,-0.005,-0.007
-3.725e-03,-0.06,-0.04,-0.0002,0.0026
-3.723e-03,-0.06,-0.08,-0.0006,-0.0074
-3.721e-03,-0.08,-0.02,-0.001,0.0038
-3.719e-03,-0.06,-0.1,-0.0006,-0.0066
-3.718e-03,-0.08,-0.04,-0.0026,0.003
-3.716e-03,-0.06,-0.1,-0.0042,-0.007
-3.714e-03,-0.06,-0.04,-0.0038,0.0026
-3.712e-03,-0.06,-0.1,-0.0042,-0.0074
-3.710e-03,-0.06,-0.02,-0.001,0.0026
-3.708e-03,-0.06,-0.1,-0.0014,-0.0066
-3.706e-03,-0.06,-0.02,-0.003,0.003
-3.704e-03,-0.06,-0.08,-0.0014,-0.007
-3.702e-03,-0.06,-0.04,-0.0034,0.003
-3.700e-03,-0.08,-0.08,-0.0038,-0.0074
-3.698e-03,-0.06,-0.02,-0.0006,0.0038
-3.696e-03,-0.06,-0.08,-0.0006,-0.0078
-3.695e-03,-0.06,-0.02,-0.0042,0.0038
-3.693e-03,-0.06,-0.1,-0.0038,-0.0074
-3.691e-03,-0.06,-0.04,-0.0034,0.0034
-3.689e-03,-0.06,-0.1,-0.0034,-0.0074
-3.687e-03,-0.06,-0.04,-0.0054,0.005
-3.685e-03,-0.04,-0.08,-0.0054,-0.007
-3.683e-03,-0.06,-0.04,-0.0006,0.0022
-3.681e-03,-0.06,-0.08,-0.0054,-0.0062
-3.679e-03,-0.06,-0.02,-0.005,0.0042
-3.677e-03,-0.06,-0.08,-0.0018,-0.007
-3.675e-03,-0.06,-0.04,-0.0038,0.0022
-3.673e-03,-0.04,-0.1,-0.0034,-0.0074
-3.671e-03,-0.04,-0.04,-0.003,0.0022
-3.670e-03,-0.06,-0.1,-0.0026,-0.0074
-3.668e-03,-0.06,-0.04,-0.001,0.0026
-3.666e-03,-0.06,-0.08,-0.0038,-0.0074
-3.664e-03,-0.06,-0.04,-0.0018,0.003
-3.662e-03,-0.06,-0.1,-0.001,-0.0078
-3.660e-03,-0.06,-0.04,-0.0026,0.0022
-3.658e-03,-0.06,-0.1,-0.0034,-0.0078
-3.656e-03,-0.08,-0.04,-0.0002,0.0018
-3.654e-03,-0.06,-0.1,-0.0022,-0.0074
-3.652e-03,-0.06,-0.04,-0.0026,0.0026
-3.650e-03,-0.06,-0.1,-0.0018,-0.007
-3.648e-03,-0.06,-0.04,-0.0026,0.0022
-3.647e-03,-0.04,-0.1,-0.0054,-0.0086
-3.645e-03,-0.06,-0.04,0.0002,0.0022
-3.643e-03,-0.06,-0.08,-0.003,-0.0074
-3.641e-03,-0.06,-0.04,-0.0038,0.003
-3.639e-03,-0.06,-0.1,-0.003,-0.0066
-3.637e-03,-0.06,-0.04,-0.0026,0.0026
-3.635e-03,-0.04,-0.1,0.0014,-0.0066
-3.633e-03,-0.06,-0.04,-0.0058,0.0022
-3.631e-03,-0.06,-0.08,0.0006,-0.0082
-3.629e-03,-0.06,-0.04,-0.0038,0.0042
-3.627e-03,-0.06,-0.1,-0.0014,-0.0074
-3.625e-03,-0.06,-0.04,-0.0014,0.0026
-3.623e-03,-0.08,-0.1,-0.001,-0.009
-3.622e-03,-0.06,-0.04,-0.003,0.0026
-3.620e-03,-0.06,-0.08,-0.005,-0.007
-3.618e-03,-0.06,-0.04,-0.001,0.0026
-3.616e-03,-0.06,-0.1,-0.0026,-0.0066
-3.614e-03,-0.06,-0.04,-0.003,0.003
-3.612e-03,-0.06,-0.1,-0.0046,-0.007
-3.610e-03,-0.08,-0.04,-0.0002,0.003
-3.608e-03,-0.08,-0.1,-0.003,-0.0074
-3.606e-03,-0.06,-0.04,-0.0002,0.0022
-3.604e-03,-0.06,-0.1,-0.0034,-0.0078
-3.602e-03,-0.06,-0.04,-0.0034,0.0034
-3.600e-03,-0.08,-0.1,-0.0022,-0.0086
-3.599e-03,-0.06,-0.04,-0.0026,0.0026
-3.597e-03,-0.06,-0.1,-0.0002,-0.0078
-3.595e-03,-0.06,-0.04,-0.0002,0.0022
-3.593e-03,-0.08,-0.1,-0.0042,-0.0082
-3.591e-03,-0.08,-0.04,-0.0026,0.0022
-3.589e-03,-0.06,-0.1,-0.0018,-0.0074
-3.587e-03,-0.06,-0.04,-0.0026,0.0026
-3.585e-03,-0.08,-0.1,-0.0026,-0.0078
-3.583e-03,-0.06,-0.04,-0.0006,0.0022
-3.581e-03,-0.06,-0.1,-0.0026,-0.0078
-3.579e-03,-0.06,-0.04,-0.0034,0.0022
-3.577e-03,-0.06,-0.1,0.001,-0.0102
-3.575e-03,-0.06,-0.04,-0.0046,0.003
-3.574e-03,-0.06,-0.1,-0.0002,-0.0078
-3.572e-03,-0.06,-0.04,-0.0014,0.0022
-3.570e-03,-0.08,-0.1,-0.0042,-0.0074
-3.568e-03,-0.08,-0.04,-0.0014,0.0038
-3.566e-03,-0.06,-0.1,-0.0038,-0.0078
-3.564e-03,-0.06,-0.04,-0.0034,0.0022
-3.562e-03,-0.08,-0.1,-0.0042,-0.0078
-3.560e-03,-0.06,-0.04,-0.0034,0.003
-3.558e-03,-0.08,-0.1,-0.0014,-0.0074
-3.556e-03,-0.04,-0.04,-0.0046,0.0034
-3.554e-03,-0.06,-0.1,-0.0038,-0.0074
-3.552e-03,-0.08,-0.04,-0.0038,0.003
-3.551e-03,-0.08,-0.1,-0.0034,-0.007
-3.549e-03,-0.06,-0.04,-0.0018,0.003
-3.547e-03,-0.06,-0.1,-0.0022,-0.0078
-3.545e-03,-0.08,-0.04,-0.0014,0.0026
-3.543e-03,-0.06,-0.1,-0.005,-0.0082
-3.541e-03,-0.06,-0.04,-0.0042,0.0018
-3.539e-03,-0.06,-0.1,-0.0018,-0.0074
-3.537e-03,-0.06,-0.04,-0.0018,0.0026
-3.535e-03,-0.08,-0.1,-0.0034,-0.0082
-3.533e-03,-0.06,-0.04,-0.0006,0.0026
-3.531e-03,-0.06,-0.1,-0.003,-0.0074
-3.529e-03,-0.06,-0.04,-0.003,0.0014
-3.527e-03,-0.08,-0.1,-0.0014,-0.0086
-3.526e-03,-0.06,-0.04,-0.001,0.0018
-3.524e-03,-0.06,-0.1,-0.0022,-0.0066
-3.522e-03,-0.08,-0.04,-0.001,0.0026
-3.520e-03,-0.06,-0.1,-0.007,-0.0078
-3.518e-03,-0.08,-0.04,-0.0062,0.0022
-3.516e-03,-0.06,-0.1,0.001,-0.0078
-3.514e-03,-0.08,-0.04,-0.0046,0.003
-3.512e-03,-0.08,-0.1,-0.0074,-0.0082
-3.510e-03,-0.08,-0.04,-0.003,0.003
-3.508e-03,-0.06,-0.1,-0.0026,-0.0078
-3.506e-03,-0.06,-0.04,-0.0002,0.0022
-3.504e-03,-0.08,-0.1,-0.0026,-0.007
-3.503e-03,-0.06,-0.04,-0.0042,0.0026
-3.501e-03,-0.06,-0.1,-0.0042,-0.0082
-3.499e-03,-0.06,-0.04,-0.0054,0.0034
-3.497e-03,-0.08,-0.1,-0.0046,-0.0074
-3.495e-03,-0.08,-0.04,-0.0042,0.0022
-3.493e-03,-0.08,-0.1,-0.0026,-0.0078
-3.491e-03,-0.06,-0.04,-0.0034,0.0022
-3.489e-03,-0.06,-0.1,-0.005,-0.0074
-3.487e-03,-0.08,-0.04,-0.005,0.0018
-3.485e-03,-0.08,-0.1,-0.0038,-0.0094
-3.483e-03,-0.06,-0.04,-0.0046,0.0026
-3.481e-03,-0.08,-0.1,-0.0026,-0.0078
-3.479e-03,-0.08,-0.04,-0.0014,0.0022
-3.478e-03,-0.08,-0.1,-0.001,-0.009
-3.476e-03,-0.08,-0.04,-0.0006,0.0018
-3.474e-03,-0.06,-0.1,-0.0046,-0.0074
-3.472e-03,-0.08,-0.04,-0.0034,0.003
-3.470e-03,-0.08,-0.1,-0.0014,-0.0078
-3.468e-03,-0.08,-0.04,-0.003,0.003
-3.466e-03,-0.06,-0.1,-0.003,-0.0082
-3.464e-03,-0.06,-0.06,-0.0062,0.0026
-3.462e-03,-0.08,-0.1,-0.003,-0.007
-3.460e-03,-0.08,-0.04,-0.0038,0.0018
-3.458e-03,-0.08,-0.1,-0.001,-0.0086
-3.456e-03,-0.08,-0.06,-0.003,0.0026
-3.455e-03,-0.08,-0.1,-0.0006,-0.0078
-3.453e-03,-0.06,-0.04,-0.0018,0.0022
-3.451e-03,-0.08,-0.1,-0.0046,-0.0082
-3.449e-03,-0.08,-0.06,-0.003,0.0018
-3.447e-03,-0.08,-0.1,-0.0046,-0.0086
-3.445e-03,-0.08,-0.06,-0.0022,0.0014
-3.443e-03,-0.08,-0.1,-0.0058,-0.0086
-3.441e-03,-0.08,-0.06,-0.0014,0.0014
-3.439e-03,-0.06,-0.1,-0.0042,-0.0082
-3.437e-03,-0.08,-0.06,-0.0038,0.003
-3.435e-03,-0.06,-0.1,-0.0038,-0.0078
-3.433e-03,-0.08,-0.04,-0.001,0.0022
-3.431e-03,-0.08,-0.1,-0.0046,-0.0086
-3.430e-03,-0.08,-0.06,-0.0022,0.0022
-3.428e-03,-0.08,-0.1,-0.0054,-0.0074
-3.426e-03,-0.08,-0.06,-0.003,0.0022
-3.424e-03,-0.08,-0.1,-0.0042,-0.0078
-3.422e-03,-0.08,-0.06,-0.0014,0.0026
-3.420e-03,-0.06,-0.1,-0.0026,-0.0078
-3.418e-03,-0.08,-0.04,-0.0014,0.0018
-3.416e-03,-0.08,-0.1,-0.0026,-0.0082
-3.414e-03,-0.08,-0.06,-0.0042,0.0022
-3.412e-03,-0.08,-0.1,-0.0022,-0.0078
-3.410e-03,-0.08,-0.04,-0.0042,0.003
-3.408e-03,-0.08,-0.1,-0.005,-0.0078
-3.406e-03,-0.06,-0.06,-0.003,0.0026
-3.405e-03,-0.08,-0.1,-0.0054,-0.009
-3.403e-03,-0.08,-0.06,-0.0042,0.0026
-3.401e-03,-0.08,-0.1,-0.0018,-0.0094
-3.399e-03,-0.08,-0.06,-0.0066,0.0018
-3.397e-03,-0.08,-0.1,-0.0026,-0.007
-3.395e-03,-0.08,-0.06,-0.003,0.0026
-3.393e-03,-0.08,-0.1,-0.0046,-0.0082
-3.391e-03,-0.08,-0.06,-0.0006,0.003
-3.389e-03,-0.06,-0.1,-0.003,-0.0074
-3.387e-03,-0.06,-0.06,-0.0022,0.0022
-3.385e-03,-0.08,-0.1,-0.0038,-0.0074
-3.383e-03,-0.08,-0.06,-0.003,0.0038
-3.382e-03,-0.08,-0.1,-0.0034,-0.009
-3.380e-03,-0.08,-0.06,-0.0038,0.0018
-3.378e-03,-0.08,-0.1,-0.0042,-0.0074
-3.376e-03,-0.08,-0.06,0.0014,0.003
-3.374e-03,-0.08,-0.1,-0.0026,-0.0082
-3.372e-03,-0.08,-0.06,-0.0038,0.0018
-3.370e-03,-0.08,-0.1,0.0018,-0.0082
-3.368e-03,-0.06,-0.06,-0.0026,0.0026
-3.366e-03,-0.08,-0.12,-0.0034,-0.009
-3.364e-03,-0.08,-0.06,-0.003,0.0022
-3.362e-03,-0.08,-0.1,-0.005,-0.009
-3.360e-03,-0.08,-0.06,-0.0034,0.0014
-3.358e-03,-0.08,-0.1,-0.0022,-0.0086
-3.357e-03,-0.08,-0.06,-0.0022,0.0014
-3.355e-03,-0.08,-0.1,-0.0022,-0.0086
-3.353e-03,-0.08,-0.06,-0.003,0.0022
-3.351e-03,-0.06,-0.1,-0.0022,-0.0094
-3.349e-03,-0.08,-0.06,-0.0026,0.0014
-3.347e-03,-0.08,-0.1,-0.0034,-0.0078
-3.345e-03,-0.08,-0.06,-0.0018,0.0022
-3.343e-03,-0.06,-0.1,-0.003,-0.0074
-3.341e-03,-0.08,-0.06,-0.001,0.0034
-3.339e-03,-0.08,-0.1,-0.0018,-0.0078
-3.337e-03,-0.08,-0.06,-0.0034,0.0034
-3.335e-03,-0.08,-0.1,-0.0042,-0.0078
-3.334e-03,-0.08,-0.04,-0.0026,0.0034
-3.332e-03,-0.08,-0.1,-0.0018,-0.0086
-3.330e-03,-0.08,-0.04,0.001,0.003
-3.328e-03,-0.08,-0.1,-0.001,-0.0078
-3.326e-03,-0.08,-0.06,-0.005,0.0022
-3.324e-03,-0.08,-0.12,-0.003,-0.0082
-3.322e-03,-0.08,-0.06,-0.0018,0.0018
-3.320e-03,-0.08,-0.12,-0.0034,-0.0082
-3.318e-03,-0.1,-0.06,-0.0042,0.0022
-3.316e-03,-0.08,-0.1,-0.0026,-0.0086
-3.314e-03,-0.06,-0.06,-0.003,0.0018
-3.312e-03,-0.1,-0.1,-0.0018,-0.0082
-3.310e-03,-0.08,-0.06,-0.0034,0.0022
-3.309e-03,-0.08,-0.1,-0.0034,-0.0086
-3.307e-03,-0.08,-0.06,-0.0042,0.0026
-3.305e-03,-0.08,-0.12,-0.001,-0.0094
-3.303e-03,-0.08,-0.06,-0.0034,0.0022
-3.301e-03,-0.08,-0.1,-0.0034,-0.0074
-3.299e-03,-0.1,-0.06,-0.001,0.0022
-3.297e-03,-0.06,-0.12,-0.0054,-0.0074
-3.295e-03,-0.08,-0.06,-0.0014,0.0022
-3.293e-03,-0.08,-0.12,-0.003,-0.0078
-3.291e-03,-0.08,-0.06,-0.005,0.0026
-3.289e-03,-0.08,-0.1,-0.0042,-0.0074
-3.287e-03,-0.08,-0.06,-0.0022,0.0014
-3.286e-03,-0.08,-0.12,-0.003,-0.0086
-3.284e-03,-0.08,-0.06,-0.0042,0.0022
-3.282e-03,-0.08,-0.1,-0.0026,-0.009
-3.280e-03,-0.1,-0.06,-0.0042,0.0026
-3.278e-03,-0.08,-0.12,-0.0014,-0.0098
-3.276e-03,-0.08,-0.06,-0.0026,0.0022
-3.274e-03,-0.08,-0.12,-0.003,-0.0078
-3.272e-03,-0.08,-0.06,-0.0042,0.0014
-3.270e-03,-0.08,-0.1,-0.0038,-0.0082
-3.268e-03,-0.08,-0.06,-0.0042,0.0034
-3.266e-03,-0.08,-0.1,-0.003,-0.0078
-3.264e-03,-0.08,-0.06,-0.0058,0.0018
-3.262e-03,-0.08,-0.12,-0.0026,-0.0082
-3.261e-03,-0.08,-0.06,-0.0042,0.0022
-3.259e-03,-0.08,-0.12,-0.0034,-0.0078
-3.257e-03,-0.08,-0.06,-0.0038,0.0014
-3.255e-03,-0.08,-0.12,-0.0034,-0.0074
-3.253e-03,-0.08,-0.06,-0.0006,0.0026
-3.251e-03,-0.1,-0.12,-0.0046,-0.0074
-3.249e-03,-0.1,-0.06,-0.0026,0.0022
-3.247e-03,-0.1,-0.12,0.0002,-0.0086
-3.245e-03,-0.08,-0.06,-0.0018,0.003
-3.243e-03,-0.08,-0.12,-0.0018,-0.0074
-3.241e-03,-0.08,-0.06,0.0002,0.0034
-3.239e-03,-0.08,-0.1,-0.0022,-0.0082
-3.238e-03,-0.08,-0.06,-0.0058,0.003
-3.236e-03,-0.08,-0.12,-0.0046,-0.0086
-3.234e-03,-0.08,-0.06,-0.0046,0.0026
-3.232e-03,-0.08,-0.12,-0.0046,-0.0086
-3.230e-03,-0.08,-0.06,-0.005,0.0022
-3.228e-03,-0.08,-0.12,0.001,-0.007
-3.226e-03,-0.1,-0.06,-0.0022,0.0026
-3.224e-03,-0.08,-0.1,-0.005,-0.0078
-3.222e-03,-0.08,-0.06,-0.0022,0.0034
-3.220e-03,-0.1,-0.12,-0.0046,-0.009
-3.218e-03,-0.08,-0.06,-0.0014,0.0014
-3.216e-03,-0.1,-0.12,-0.0046,-0.0078
-3.214e-03,-0.08,-0.06,-0.0026,0.0022
-3.213e-03,-0.08,-0.12,-0.0022,-0.0074
-3.211e-03,-0.1,-0.06,-0.0034,0.0026
-3.209e-03,-0.1,-0.12,-0.0006,-0.0086
-3.207e-03,-0.1,-0.06,-0.003,0.003
-3.205e-03,-0.1,-0.12,-0.0034,-0.0074
-3.203e-03,-0.08,-0.06,-0.0054,0.003
-3.201e-03,-0.08,-0.12,-0.0038,-0.009
-3.199e-03,-0.1,-0.06,-0.0026,0.0018
-3.197e-03,-0.08,-0.12,-0.0046,-0.0082
-3.195e-03,-0.1,-0.06,-0.0022,0.0022
-3.193e-03,-0.1,-0.12,-0.0054,-0.0082
-3.191e-03,-0.08,-0.06,-0.0026,0.0022
-3.190e-03,-0.1,-0.12,-0.005,-0.0082
-3.188e-03,-0.08,-0.06,-0.003,0.0018
-3.186e-03,-0.08,-0.12,-0.001,-0.0082
-3.184e-03,-0.08,-0.06,-0.0038,0.0014
-3.182e-03,-0.1,-0.12,-0.001,-0.0074
-3.180e-03,-0.08,-0.06,-0.003,0.0018
-3.178e-03,-0.08,-0.12,-0.0034,-0.0074
-3.176e-03,-0.08,-0.06,-0.0034,0.003
-3.174e-03,-0.08,-0.12,-0.0022,-0.0082
-3.172e-03,-0.08,-0.06,-0.0038,0.003
-3.170e-03,-0.08,-0.12,-0.0038,-0.009
-3.168e-03,-0.1,-0.06,-0.0034,0.0018
-3.166e-03,-0.08,-0.12,-0.0022,-0.0082
-3.165e-03,-0.08,-0.06,-0.0034,0.003
-3.163e-03,-0.08,-0.12,-0.0022,-0.0074
-3.161e-03,-0.08,-0.06,-0.0038,0.0018
-3.159e-03,-0.08,-0.12,-0.0018,-0.0078
-3.157e-03,-0.1,-0.06,-0.0014,0.0026
-3.155e-03,-0.1,-0.12,-0.005,-0.0086
-3.153e-03,-0.08,-0.06,-0.0026,0.0022
-3.151e-03,-0.1,-0.12,0.0006,-0.0078
-3.149e-03,-0.1,-0.06,-0.0026,0.0026
-3.147e-03,-0.1,-0.12,-0.0054,-0.0074
-3.145e-03,-0.1,-0.06,-0.0042,0.0018
-3.143e-03,-0.08,-0.12,0.0002,-0.0082
-3.142e-03,-0.1,-0.06,-0.0018,0.0022
-3.140e-03,-0.1,-0.12,-0.0026,-0.007
-3.138e-03,-0.08,-0.06,-0.0034,0.0014
-3.136e-03,-0.08,-0.12,-0.005,-0.0098
-3.134e-03,-0.1,-0.06,-0.003,0.0022
-3.132e-03,-0.1,-0.12,-0.0014,-0.0074
-3.130e-03,-0.08,-0.06,-0.0054,0.0022
-3.128e-03,-0.08,-0.12,-0.0026,-0.0082
-3.126e-03,-0.08,-0.08,-0.0038,0.0018
-3.124e-03,-0.1,-0.12,-0.0042,-0.0074
-3.122e-03,-0.08,-0.06,-0.001,0.0038
-3.120e-03,-0.1,-0.12,-0.0014,-0.0074
-3.118e-03,-0.1,-0.06,-0.001,0.0022
-3.117e-03,-0.08,-0.12,-0.003,-0.0078
-3.115e-03,-0.08,-0.06,-0.0022,0.0022
-3.113e-03,-0.1,-0.12,-0.0054,-0.0082
-3.111e-03,-0.1,-0.08,-0.0002,0.0034
-3.109e-03,-0.1,-0.12,-0.0034,-0.009
-3.107e-03,-0.08,-0.08,-0.003,0.003
-3.105e-03,-0.08,-0.12,-0.0058,-0.0082
-3.103e-03,-0.1,-0.06,-0.0018,0.0022
-3.101e-03,-0.1,-0.12,-0.0026,-0.0074
-3.099e-03,-0.1,-0.08,-0.0038,0.0018
-3.097e-03,-0.1,-0.12,-0.0034,-0.0082
-3.095e-03,-0.1,-0.06,-0.003,0.0034
-3.094e-03,-0.1,-0.14,-0.003,-0.0086
-3.092e-03,-0.1,-0.06,-0.0026,0.0026
-3.090e-03,-0.08,-0.12,-0.0014,-0.0086
-3.088e-03,-0.1,-0.08,-0.005,0.0034
-3.086e-03,-0.08,-0.12,-0.003,-0.0074
-3.084e-03,-0.1,-0.06,-0.0002,0.0026
-3.082e-03,-0.08,-0.12,-0.0046,-0.0078
-3.080e-03,-0.1,-0.06,-0.003,0.0026
-3.078e-03,-0.1,-0.12,-0.0054,-0.009
-3.076e-03,-0.1,-0.08,-0.0022,0.003
-3.074e-03,-0.08,-0.12,-0.0046,-0.0078
-3.072e-03,-0.1,-0.06,-0.0038,0.003
-3.070e-03,-0.1,-0.12,-0.003,-0.0082
-3.069e-03,-0.08,-0.08,-0.0038,0.0018
-3.067e-03,-0.1,-0.12,-0.0034,-0.0078
-3.065e-03,-0.1,-0.08,-0.003,0.0022
-3.063e-03,-0.1,-0.12,-0.005,-0.0078
-3.061e-03,-0.1,-0.06,-0.0022,0.0022
-3.059e-03,-0.08,-0.12,-0.0034,-0.0082
-3.057e-03,-0.1,-0.08,-0.0006,0.003
-3.055e-03,-0.1,-0.12,-0.003,-0.0078
-3.053e-03,-0.1,-0.06,-0.0042,0.0034
-3.051e-03,-0.1,-0.12,-0.0026,-0.0078
-3.049e-03,-0.1,-0.08,-0.0038,0.003
-3.047e-03,-0.08,-0.12,-0.0042,-0.009
-3.046e-03,-0.1,-0.06,-0.0054,0.0014
-3.044e-03,-0.1,-0.12,-0.0054,-0.0078
-3.042e-03,-0.1,-0.08,-0.003,0.0026
-3.040e-03,-0.1,-0.12,-0.003,-0.0094
-3.038e-03,-0.08,-0.08,-0.003,0.0022
-3.036e-03,-0.1,-0.12,-0.0026,-0.0074
-3.034e-03,-0.1,-0.08,-0.0018,0.0026
-3.032e-03,-0.1,-0.12,-0.0018,-0.0078
-3.030e-03,-0.08,-0.08,-0.0018,0.0022
-3.028e-03,-0.1,-0.12,-0.0018,-0.0082
-3.026e-03,-0.08,-0.08,-0.0038,0.0038
-3.024e-03,-0.1,-0.12,-0.0034,-0.0078
-3.022e-03,-0.1,-0.08,-0.003,0.0042
-3.021e-03,-0.1,-0.14,-0.0022,-0.009
-3.019e-03,-0.12,-0.08,-0.0046,0.0026
-3.017e-03,-0.1,-0.12,-0.003,-0.0082
-3.015e-03,-0.12,-0.08,-0.005,0.0022
-3.013e-03,-0.1,-0.12,-0.0006,-0.0078
-3.011e-03,-0.08,-0.06,-0.0026,0.0038
-3.009e-03,-0.1,-0.12,-0.0018,-0.0078
-3.007e-03,-0.1,-0.08,-0.0026,0.0034
-3.005e-03,-0.1,-0.14,-0.0022,-0.0094
-3.003e-03,-0.1,-0.08,-0.0022,0.0022
-3.001e-03,-0.1,-0.12,-0.003,-0.0074
-2.999e-03,-0.1,-0.08,-0.0006,0.0026
-2.998e-03,-0.1,-0.12,-0.0074,-0.009
-2.996e-03,-0.1,-0.06,-0.0058,0.0026
-2.994e-03,-0.08,-0.12,-0.001,-0.0082
-2.992e-03,-0.1,-0.06,-0.0034,0.0038
-2.990e-03,-0.1,-0.12,-0.0034,-0.0078
-2.988e-03,-0.1,-0.08,-0.001,0.0018
-2.986e-03,-0.1,-0.12,-0.0006,-0.0086
-2.984e-03,-0.1,-0.08,-0.0042,0.0022
-2.982e-03,-0.1,-0.12,-0.0014,-0.0082
-2.980e-03,-0.08,-0.08,-0.0002,0.0034
-2.978e-03,-0.1,-0.12,-0.0022,-0.0078
-2.976e-03,-0.1,-0.08,0.0006,0.0022
-2.974e-03,-0.1,-0.12,0.0002,-0.0078
-2.973e-03,-0.1,-0.08,-0.001,0.0022
-2.971e-03,-0.1,-0.12,-0.0026,-0.0082
-2.969e-03,-0.1,-0.08,-0.0018,0.0022
-2.967e-03,-0.1,-0.14,-0.003,-0.0074
-2.965e-03,-0.1,-0.08,-0.003,0.0022
-2.963e-03,-0.1,-0.14,-0.001,-0.0078
-2.961e-03,-0.1,-0.08,-0.0066,0.003
-2.959e-03,-0.1,-0.14,-0.0038,-0.0082
-2.957e-03,-0.1,-0.08,-0.0038,0.0018
-2.955e-03,-0.1,-0.14,-0.0034,-0.0082
-2.953e-03,-0.1,-0.08,-0.0038,0.0014
-2.951e-03,-0.1,-0.14,-0.003,-0.0098
-2.950e-03,-0.1,-0.08,-0.003,0.003
-2.948e-03,-0.1,-0.14,-0.0058,-0.0086
-2.946e-03,-0.1,-0.08,-0.0046,0.0022
-2.944e-03,-0.12,-0.12,-0.0022,-0.0074
-2.942e-03,-0.1,-0.08,-0.0038,0.003
-2.940e-03,-0.1,-0.14,-0.0026,-0.0078
-2.938e-03,-0.1,-0.08,-0.005,0.0022
-2.936e-03,-0.1,-0.14,-0.0022,-0.0078
-2.934e-03,-0.1,-0.08,-0.0046,0.003
-2.932e-03,-0.1,-0.14,-0.0018,-0.0078
-2.930e-03,-0.1,-0.08,-0.0046,0.0022
-2.928e-03,-0.1,-0.14,-0.0034,-0.0074
-2.926e-03,-0.1,-0.08,-0.0018,0.0026
-2.925e-03,-0.1,-0.14,-0.0026,-0.009
-2.923e-03,-0.12,-0.08,-0.0042,0.0022
-2.921e-03,-0.1,-0.14,-0.0006,-0.0086
-2.919e-03,-0.1,-0.08,-0.0046,0.0022
-2.917e-03,-0.1,-0.14,-0.0042,-0.009
-2.915e-03,-0.1,-0.08,-0.003,0.0014
-2.913e-03,-0.1,-0.14,-0.0042,-0.009
-2.911e-03,-0.12,-0.08,-0.0022,0.0022
-2.909e-03,-0.1,-0.14,-0.0038,-0.0082
-2.907e-03,-0.1,-0.08,-0.0038,0.003
-2.905e-03,-0.1,-0.14,-0.0026,-0.0078
-2.903e-03,-0.1,-0.08,-0.0038,0.0014
-2.902e-03,-0.1,-0.14,-0.0022,-0.0082
-2.900e-03,-0.1,-0.08,-0.0034,0.003
-2.898e-03,-0.1,-0.14,-0.0022,-0.0086
-2.896e-03,-0.1,-0.08,-0.0034,0.0014
-2.894e-03,-0.1,-0.14,-0.003,-0.0074
-2.892e-03,-0.12,-0.08,-0.0026,0.0026
-2.890e-03,-0.08,-0.14,-0.0042,-0.0094
-2.888e-03,-0.1,-0.08,-0.0038,0.003
-2.886e-03,-0.1,-0.14,-0.0002,-0.0086
-2.884e-03,-0.1,-0.08,-0.003,0.003
-2.882e-03,-0.1,-0.14,-0.0058,-0.0078
-2.880e-03,-0.1,-0.08,-0.0018,0.0018
-2.878e-03,-0.1,-0.14,-0.0026,-0.0082
-2.877e-03,-0.1,-0.08,-0.001,0.003
-2.875e-03,-0.1,-0.14,-0.0014,-0.0078
-2.873e-03,-0.1,-0.08,-0.0054,0.003
-2.871e-03,-0.1,-0.14,-0.003,-0.0074
-2.869e-03,-0.1,-0.08,-0.0046,0.003
-2.867e-03,-0.1,-0.14,-0.003,-0.0078
-2.865e-03,-0.12,-0.08,-0.0058,0.0022
-2.863e-03,-0.1,-0.14,-0.003,-0.0102
-2.861e-03,-0.12,-0.08,-0.0034,0.0018
-2.859e-03,-0.1,-0.14,-0.0014,-0.0086
-2.857e-03,-0.1,-0.08,-0.0018,0.0018
-2.855e-03,-0.1,-0.14,-0.0034,-0.0078
-2.854e-03,-0.1,-0.08,-0.003,0.0026
-2.852e-03,-0.1,-0.14,-0.005,-0.009
-2.850e-03,-0.1,-0.08,-0.0026,0.0022
-2.848e-03,-0.1,-0.14,-0.0022,-0.0078
-2.846e-03,-0.1,-0.08,-0.005,0.0018
-2.844e-03,-0.12,-0.14,-0.003,-0.0086
-2.842e-03,-0.1,-0.08,-0.0074,0.003
-2.840e-03,-0.12,-0.14,-0.0006,-0.007
-2.838e-03,-0.1,-0.08,-0.0058,0.0022
-2.836e-03,-0.1,-0.14,-0.0014,-0.0074
-2.834e-03,-0.12,-0.08,-0.0042,0.0014
-2.832e-03,-0.12,-0.14,-0.0034,-0.0086
-2.830e-03,-0.1,-0.08,-0.003,0.0026
-2.829e-03,-0.1,-0.14,-0.001,-0.0066
-2.827e-03,-0.1,-0.08,-0.0046,0.0034
-2.825e-03,-0.1,-0.14,-0.0034,-0.009
-2.823e-03,-0.1,-0.08,-0.0042,0.001
-2.821e-03,-0.12,-0.14,-0.0018,-0.0082
-2.819e-03,-0.12,-0.08,-0.0018,0.0026
-2.817e-03,-0.1,-0.14,-0.0018,-0.0074
-2.815e-03,-0.1,-0.08,-0.0006,0.0018
-2.813e-03,-0.08,-0.14,-0.0038,-0.0086
-2.811e-03,-0.12,-0.08,-0.003,0.0034
-2.809e-03,-0.1,-0.14,-0.0022,-0.0082
-2.807e-03,-0.1,-0.1,-0.003,0.0022
-2.805e-03,-0.12,-0.14,-0.0046,-0.0078
-2.804e-03,-0.12,-0.08,-0.0014,0.0026
-2.802e-03,-0.12,-0.14,-0.0022,-0.0082
-2.800e-03,-0.1,-0.08,-0.005,0.0022
-2.798e-03,-0.12,-0.14,-0.0026,-0.0074
-2.796e-03,-0.1,-0.08,-0.0002,0.0018
-2.794e-03,-0.1,-0.14,-0.0022,-0.0086
-2.792e-03,-0.1,-0.08,-0.0026,0.0026
-2.790e-03,-0.1,-0.14,-0.0046,-0.0082
-2.788e-03,-0.1,-0.08,-0.0074,0.0018
-2.786e-03,-0.1,-0.14,0.0002,-0.0086
-2.784e-03,-0.1,-0.08,-0.0022,0.001
-2.782e-03,-0.1,-0.14,-0.0066,-0.0086
-2.781e-03,-0.12,-0.08,-0.0018,0.003
-2.779e-03,-0.1,-0.14,0.0006,-0.0082
-2.777e-03,-0.1,-0.08,-0.003,0.003
-2.775e-03,-0.12,-0.14,-0.0058,-0.0082
-2.773e-03,-0.1,-0.08,-0.003,0.0018
-2.771e-03,-0.12,-0.14,-0.0038,-0.0082
-2.769e-03,-0.12,-0.08,-0.0018,0.003
-2.767e-03,-0.12,-0.14,-0.0042,-0.0082
-2.765e-03,-0.12,-0.08,-0.0022,0.0022
-2.763e-03,-0.12,-0.14,-0.0022,-0.009
-2.761e-03,-0.12,-0.1,-0.0034,0.0018
-2.759e-03,-0.12,-0.14,-0.0038,-0.0078
-2.757e-03,-0.12,-0.08,-0.0014,0.0026
-2.756e-03,-0.1,-0.14,-0.0018,-0.0062
-2.754e-03,-0.1,-0.08,-0.0046,0.0018
-2.752e-03,-0.12,-0.14,0.0006,-0.0086
-2.750e-03,-0.1,-0.08,-0.0026,0.0042
-2.748e-03,-0.1,-0.14,-0.0054,-0.0086
-2.746e-03,-0.1,-0.08,-0.0022,0.0026
-2.744e-03,-0.1,-0.14,-0.0026,-0.0078
-2.742e-03,-0.12,-0.08,-0.0026,0.0014
-2.740e-03,-0.12,-0.14,-0.003,-0.0086
-2.738e-03,-0.12,-0.08,-0.0046,0.0014
-2.736e-03,-0.1,-0.14,-0.0014,-0.0086
-2.734e-03,-0.12,-0.08,-0.0022,0.0022
-2.733e-03,-0.1,-0.14,-0.0034,-0.0074
-2.731e-03,-0.12,-0.1,-0.0042,0.0026
-2.729e-03,-0.12,-0.14,-0.001,-0.007
-2.727e-03,-0.12,-0.08,-0.0018,0.0022
-2.725e-03,-0.12,-0.14,0.001,-0.0086
-2.723e-03,-0.1,-0.1,-0.0022,0.0022
-2.721e-03,-0.12,-0.14,-0.0038,-0.0082
-2.719e-03,-0.12,-0.1,-0.003,0.0018
-2.717e-03,-0.12,-0.14,-0.0002,-0.007
-2.715e-03,-0.1,-0.08,-0.0014,0.0034
-2.713e-03,-0.1,-0.14,-0.0034,-0.0082
-2.711e-03,-0.12,-0.1,-0.0042,0.0014
-2.709e-03,-0.1,-0.14,-0.0022,-0.0078
-2.708e-03,-0.12,-0.1,-0.0006,0.0018
-2.706e-03,-0.1,-0.14,0.0018,-0.0098
-2.704e-03,-0.1,-0.1,-0.0046,0.0026
-2.702e-03,-0.12,-0.14,-0.0034,-0.0082
-2.700e-03,-0.12,-0.1,-0.0062,0.001
-2.698e-03,-0.1,-0.14,-0.0022,-0.009
-2.696e-03,-0.1,-0.08,-0.0026,0.0022
-2.694e-03,-0.1,-0.14,-0.0034,-0.0078
-2.692e-03,-0.12,-0.1,-0.005,0.0022
-2.690e-03,-0.1,-0.14,-0.0062,-0.0078
-2.688e-03,-0.12,-0.1,-0.0026,0.0014
-2.686e-03,-0.12,-0.14,-0.001,-0.0078
-2.685e-03,-0.12,-0.1,-0.005,0.003
-2.683e-03,-0.12,-0.14,-0.0018,-0.0078
-2.681e-03,-0.1,-0.1,-0.0046,0.0022
-2.679e-03,-0.12,-0.14,-0.001,-0.0078
-2.677e-03,-0.12,-0.08,-0.0054,0.0022
-2.675e-03,-0.12,-0.14,-0.0014,-0.0082
-2.673e-03,-0.12,-0.1,-0.003,0.0014
-2.671e-03,-0.12,-0.14,-0.0002,-0.009
-2.669e-03,-0.1,-0.1,-0.0046,0.0022
-2.667e-03,-0.1,-0.14,-0.0006,-0.0086
-2.665e-03,-0.12,-0.08,-0.001,0.0034
-2.663e-03,-0.1,-0.14,-0.0002,-0.0074
-2.661e-03,-0.12,-0.08,-0.0058,0.0014
-2.660e-03,-0.12,-0.14,-0.003,-0.0086
-2.658e-03,-0.12,-0.1,-0.003,0.0022
-2.656e-03,-0.12,-0.14,-0.0026,-0.0094
-2.654e-03,-0.12,-0.1,-0.0026,0.0014
-2.652e-03,-0.1,-0.14,-0.0034,-0.0082
-2.650e-03,-0.1,-0.1,-0.0054,0.0018
-2.648e-03,-0.12,-0.14,-0.0002,-0.0086
-2.646e-03,-0.12,-0.1,-0.0034,0.0026
-2.644e-03,-0.12,-0.14,-0.005,-0.0086
-2.642e-03,-0.1,-0.1,-0.0014,0.0022
-2.640e-03,-0.12,-0.14,-0.0042,-0.0078
-2.638e-03,-0.1,-0.1,-0.0038,0.0018
-2.637e-03,-0.1,-0.14,-0.003,-0.0074
-2.635e-03,-0.1,-0.1,-0.0026,0.0026
-2.633e-03,-0.12,-0.14,-0.005,-0.0078
-2.631e-03,-0.12,-0.1,-0.0026,0.003
-2.629e-03,-0.12,-0.16,-0.0058,-0.0074
-2.627e-03,-0.12,-0.1,-0.005,0.0022
-2.625e-03,-0.12,-0.16,-0.0018,-0.0094
-2.623e-03,-0.14,-0.1,-0.0026,0.0018
-2.621e-03,-0.12,-0.14,-0.0034,-0.0074
-2.619e-03,-0.12,-0.08,-0.0026,0.0042
-2.617e-03,-0.12,-0.16,-0.0022,-0.0078
-2.615e-03,-0.12,-0.1,-0.0078,0.003
-2.613e-03,-0.12,-0.14,-0.0042,-0.009
-2.612e-03,-0.12,-0.1,-0.0046,0.0022
-2.610e-03,-0.1,-0.14,-0.0018,-0.007
-2.608e-03,-0.12,-0.1,-0.0046,0.003
-2.606e-03,-0.12,-0.16,-0.005,-0.0086
-2.604e-03,-0.12,-0.1,-0.0034,0.0022
-2.602e-03,-0.12,-0.16,-0.003,-0.0082
-2.600e-03,-0.12,-0.1,-0.0022,0.0034
-2.598e-03,-0.1,-0.16,-0.0054,-0.0086
-2.596e-03,-0.12,-0.1,-0.0058,0.0026
-2.594e-03,-0.12,-0.16,-0.001,-0.009
-2.592e-03,-0.12,-0.1,-0.0026,0.0022
-2.590e-03,-0.12,-0.14,-0.0034,-0.0086
-2.589e-03,-0.12,-0.1,-0.0034,0.0018
-2.587e-03,-0.12,-0.14,-0.0046,-0.0078
-2.585e-03,-0.12,-0.1,-0.0014,0.003
-2.583e-03,-0.12,-0.16,-0.0038,-0.009
-2.581e-03,-0.14,-0.1,-0.0062,0.0022
-2.579e-03,-0.12,-0.16,-0.0042,-0.0082
-2.577e-03,-0.12,-0.1,-0.0022,0.0026
-2.575e-03,-0.12,-0.16,-0.0026,-0.0074
-2.573e-03,-0.12,-0.1,-0.0026,0.0038
-2.571e-03,-0.12,-0.14,-0.0014,-0.0086
-2.569e-03,-0.12,-0.1,-0.0034,0.0022
-2.567e-03,-0.12,-0.16,0.0006,-0.0074
-2.565e-03,-0.12,-0.1,-0.0042,0.0018
-2.564e-03,-0.12,-0.16,-0.0022,-0.0082
-2.562e-03,-0.12,-0.1,0.0002,0.0058
-2.560e-03,-0.12,-0.16,-0.003,-0.0082
-2.558e-03,-0.14,-0.1,-0.0058,0.0018
-2.556e-03,-0.14,-0.16,-0.0002,-0.0078
-2.554e-03,-0.12,-0.1,-0.0018,0.003
-2.552e-03,-0.14,-0.14,-0.0062,-0.0078
-2.550e-03,-0.12,-0.1,-0.0042,0.003
-2.548e-03,-0.12,-0.16,-0.0014,-0.0098
-2.546e-03,-0.12,-0.1,-0.0034,0.0022
-2.544e-03,-0.14,-0.16,-0.003,-0.0078
-2.542e-03,-0.12,-0.1,-0.0042,0.003
-2.541e-03,-0.12,-0.16,-0.0022,-0.009
-2.539e-03,-0.12,-0.1,-0.0054,0.0022
-2.537e-03,-0.12,-0.16,-0.0038,-0.0082
-2.535e-03,-0.12,-0.1,-0.0038,0.0022
-2.533e-03,-0.12,-0.16,-0.0026,-0.0082
-2.531e-03,-0.12,-0.1,-0.003,0.0018
-2.529e-03,-0.12,-0.16,-0.0022,-0.0078
-2.527e-03,-0.12,-0.1,-0.001,0.0038
-2.525e-03,-0.12,-0.16,-0.0014,-0.0094
-2.523e-03,-0.12,-0.1,-0.0006,0.003
-2.521e-03,-0.12,-0.16,-0.0034,-0.007
-2.519e-03,-0.12,-0.1,-0.0034,0.0034
-2.517e-03,-0.12,-0.16,-0.003,-0.0086
-2.516e-03,-0.14,-0.1,-0.003,0.0026
-2.514e-03,-0.12,-0.16,-0.0018,-0.0074
-2.512e-03,-0.12,-0.1,0.0002,0.0018
-2.510e-03,-0.12,-0.16,-0.0034,-0.007
-2.508e-03,-0.12,-0.1,-0.0022,0.0026
-2.506e-03,-0.14,-0.16,-0.0006,-0.0082
-2.504e-03,-0.14,-0.1,-0.0018,0.0026
-2.502e-03,-0.12,-0.16,-0.0014,-0.0086
-2.500e-03,-0.12,-0.1,-0.003,0.0022
-2.498e-03,-0.12,-0.16,-0.0038,-0.009
-2.496e-03,-0.12,-0.1,-0.0046,0.0018
-2.494e-03,-0.12,-0.16,-0.0018,-0.0082
-2.493e-03,-0.12,-0.1,-0.0054,0.0034
-2.491e-03,-0.12,-0.16,-0.0026,-0.009
-2.489e-03,-0.12,-0.1,-0.0018,0.001
-2.487e-03,-0.12,-0.16,-0.003,-0.0074
-2.485e-03,-0.12,-0.1,-0.0022,0.0026
-2.483e-03,-0.12,-0.16,-0.003,-0.0086
-2.481e-03,-0.12,-0.1,-0.001,0.003
-2.479e-03,-0.12,-0.16,-0.0026,-0.0102
-2.477e-03,-0.14,-0.1,-0.0038,0.003
-2.475e-03,-0.14,-0.16,-0.0026,-0.007
-2.473e-03,-0.14,-0.1,-0.0026,0.0022
-2.471e-03,-0.14,-0.16,-0.0054,-0.0078
-2.469e-03,-0.12,-0.1,-0.0022,0.0026
-2.468e-03,-0.14,-0.16,-0.003,-0.0086
-2.466e-03,-0.12,-0.1,-0.0054,0.0022
-2.464e-03,-0.14,-0.16,-0.0042,-0.0078
-2.462e-03,-0.12,-0.1,-0.0014,0.003
-2.460e-03,-0.12,-0.16,-0.0026,-0.0082
-2.458e-03,-0.12,-0.1,-0.005,0.0018
-2.456e-03,-0.12,-0.16,-0.0026,-0.009
-2.454e-03,-0.12,-0.1,-0.0002,0.0026
-2.452e-03,-0.12,-0.16,-0.0034,-0.009
-2.450e-03,-0.12,-0.1,-0.003,0.0026
-2.448e-03,-0.12,-0.16,-0.0026,-0.0082
-2.446e-03,-0.14,-0.1,-0.0006,0.0022
-2.445e-03,-0.12,-0.16,-0.0038,-0.0074
-2.443e-03,-0.12,-0.1,-0.0034,0.003
-2.441e-03,-0.12,-0.16,-0.001,-0.0086
-2.439e-03,-0.14,-0.1,-0.0022,0.0018
-2.437e-03,-0.14,-0.16,-0.0054,-0.0086
-2.435e-03,-0.14,-0.1,-0.0026,0.0014
-2.433e-03,-0.14,-0.16,-0.0026,-0.0082
-2.431e-03,-0.14,-0.1,-0.003,0.0022
-2.429e-03,-0.12,-0.16,-0.0026,-0.0078
-2.427e-03,-0.12,-0.1,-0.0022,0.0026
-2.425e-03,-0.12,-0.16,-0.0006,-0.0082
-2.423e-03,-0.12,-0.1,-0.0046,0.0034
-2.421e-03,-0.12,-0.16,-0.0006,-0.0086
-2.420e-03,-0.14,-0.1,-0.0038,0.0022
-2.418e-03,-0.12,-0.16,-0.0026,-0.0082
-2.416e-03,-0.14,-0.1,-0.0022,0.001
-2.414e-03,-0.14,-0.16,-0.0042,-0.0082
-2.412e-03,-0.14,-0.1,-0.0042,0.0018
-2.410e-03,-0.12,-0.16,-0.0002,-0.0086
-2.408e-03,-0.12,-0.1,-0.0026,0.0026
-2.406e-03,-0.14,-0.16,-0.0042,-0.0082
-2.404e-03,-0.14,-0.1,-0.0046,0.0034
-2.402e-03,-0.14,-0.16,-0.0026,-0.0086
-2.400e-03,-0.12,-0.1,-0.001,0.0022
-2.398e-03,-0.14,-0.16,-0.003,-0.0082
-2.397e-03,-0.14,-0.1,-0.003,0.0018
-2.395e-03,-0.12,-0.16,-0.0046,-0.0082
-2.393e-03,-0.12,-0.1,-0.0006,0.0014
-2.391e-03,-0.14,-0.16,-0.0042,-0.0078
-2.389e-03,-0.12,-0.12,-0.0018,0.0022
-2.387e-03,-0.12,-0.16,-0.0014,-0.0078
-2.385e-03,-0.14,-0.1,-0.0062,0.0022
-2.383e-03,-0.14,-0.16,-0.0006,-0.009
-2.381e-03,-0.14,-0.12,-0.0022,0.0042
-2.379e-03,-0.14,-0.16,-0.001,-0.009
-2.377e-03,-0.12,-0.12,-0.0006,0.0038
-2.375e-03,-0.14,-0.16,-0.0034,-0.0094
-2.373e-03,-0.12,-0.12,-0.0026,0.0022
-2.372e-03,-0.14,-0.16,-0.0042,-0.0094
-2.370e-03,-0.14,-0.1,-0.0006,0.0022
-2.368e-03,-0.14,-0.16,-0.0014,-0.0074
-2.366e-03,-0.12,-0.1,-0.003,0.003
-2.364e-03,-0.12,-0.16,-0.0002,-0.0074
-2.362e-03,-0.14,-0.12,-0.0006,0.003
-2.360e-03,-0.14,-0.16,-0.003,-0.0078
-2.358e-03,-0.14,-0.12,-0.003,0.0026
-2.356e-03,-0.14,-0.16,-0.0026,-0.0082
-2.354e-03,-0.12,-0.12,-0.0014,0.0022
-2.352e-03,-0.14,-0.16,-0.0014,-0.0078
-2.350e-03,-0.12,-0.12,-0.005,0.003
-2.349e-03,-0.14,-0.16,-0.0038,-0.007
-2.347e-03,-0.12,-0.12,-0.0034,0.003
-2.345e-03,-0.14,-0.16,-0.003,-0.0094
-2.343e-03,-0.14,-0.12,0.001,0.0026
-2.341e-03,-0.16,-0.16,-0.0026,-0.0078
-2.339e-03,-0.16,-0.12,-0.0018,0.0042
-2.337e-03,-0.12,-0.16,-0.0034,-0.0082
-2.335e-03,-0.14,-0.1,-0.0026,0.0034
-2.333e-03,-0.14,-0.16,-0.003,-0.0082
-2.331e-03,-0.12,-0.1,-0.0034,0.003
-2.329e-03,-0.14,-0.16,-0.0038,-0.0082
-2.327e-03,-0.14,-0.1,-0.0014,0.0018
-2.325e-03,-0.14,-0.16,-0.0066,-0.0078
-2.324e-03,-0.12,-0.1,-0.0014,0.0014
-2.322e-03,-0.14,-0.16,-0.0034,-0.007
-2.320e-03,-0.14,-0.1,-0.0014,0.0026
-2.318e-03,-0.12,-0.16,-0.005,-0.0082
-2.316e-03,-0.14,-0.12,-0.005,0.0022
-2.314e-03,-0.16,-0.16,-0.003,-0.0082
-2.312e-03,-0.14,-0.12,-0.0066,0.0014
-2.310e-03,-0.14,-0.16,-0.0034,-0.0086
-2.308e-03,-0.14,-0.12,-0.0034,0.0014
-2.306e-03,-0.14,-0.16,-0.0018,-0.0086
-2.304e-03,-0.14,-0.12,-0.0058,0.003
-2.302e-03,-0.12,-0.16,-0.0046,-0.0086
-2.301e-03,-0.14,-0.12,-0.0022,0.0046
-2.299e-03,-0.14,-0.18,-0.001,-0.0078
-2.297e-03,-0.14,-0.12,-0.0026,0.0034
-2.295e-03,-0.12,-0.16,-0.0018,-0.0078
-2.293e-03,-0.14,-0.1,-0.0018,0.0038
-2.291e-03,-0.12,-0.18,-0.003,-0.0078
-2.289e-03,-0.16,-0.12,-0.0038,0.0018
-2.287e-03,-0.16,-0.18,-0.0042,-0.0086
-2.285e-03,-0.14,-0.12,-0.005,0.0014
-2.283e-03,-0.12,-0.16,-0.0042,-0.0074
-2.281e-03,-0.14,-0.12,-0.0006,0.0014
-2.279e-03,-0.14,-0.16,-0.0058,-0.0074
-2.277e-03,-0.14,-0.12,-0.0018,0.003
-2.276e-03,-0.14,-0.16,0.0002,-0.0082
-2.274e-03,-0.16,-0.12,-0.0042,0.003
-2.272e-03,-0.14,-0.18,-0.0026,-0.0078
-2.270e-03,-0.14,-0.12,-0.0002,0.0014
-2.268e-03,-0.14,-0.16,-0.0042,-0.0074
-2.266e-03,-0.14,-0.12,-0.005,0.0034
-2.264e-03,-0.14,-0.18,-0.0026,-0.0082
-2.262e-03,-0.14,-0.12,-0.0034,0.0022
-2.260e-03,-0.16,-0.16,-0.0034,-0.0078
-2.258e-03,-0.14,-0.12,-0.0006,0.003
-2.256e-03,-0.14,-0.18,-0.0034,-0.0074
-2.254e-03,-0.14,-0.12,0.001,0.0022
-2.253e-03,-0.14,-0.18,-0.0014,-0.007
-2.251e-03,-0.16,-0.12,-0.0018,0.0022
-2.249e-03,-0.14,-0.16,-0.0026,-0.0074
-2.247e-03,-0.16,-0.12,-0.005,0.003
-2.245e-03,-0.14,-0.18,-0.0026,-0.0074
-2.243e-03,-0.14,-0.12,-0.001,0.0026
-2.241e-03,-0.14,-0.18,-0.0002,-0.0074
-2.239e-03,-0.14,-0.12,0.0002,0.0022
-2.237e-03,-0.16,-0.18,-0.0002,-0.0078
-2.235e-03,-0.14,-0.12,-0.003,0.0022
-2.233e-03,-0.14,-0.18,-0.0034,-0.0082
-2.231e-03,-0.14,-0.12,-0.0018,0.0014
-2.229e-03,-0.16,-0.18,-0.003,-0.0074
-2.228e-03,-0.12,-0.12,-0.0034,0.0022
-2.226e-03,-0.14,-0.18,0.0002,-0.0086
-2.224e-03,-0.16,-0.12,-0.0042,0.0018
-2.222e-03,-0.14,-0.18,-0.0026,-0.0066
-2.220e-03,-0.16,-0.12,-0.003,0.0026
-2.218e-03,-0.14,-0.18,-0.0022,-0.0098
-2.216e-03,-0.14,-0.12,-0.0054,0.0022
-2.214e-03,-0.14,-0.18,-0.003,-0.0094
-2.212e-03,-0.14,-0.12,-0.0034,0.0018
-2.210e-03,-0.14,-0.18,-0.0018,-0.0074
-2.208e-03,-0.14,-0.12,-0.0034,0.0022
-2.206e-03,-0.14,-0.16,-0.003,-0.0086
-2.205e-03,-0.14,-0.12,0.0002,0.0026
-2.203e-03,-0.14,-0.16,-0.003,-0.0078
-2.201e-03,-0.14,-0.1,-0.0026,0.0034
-2.199e-03,-0.14,-0.16,-0.0034,-0.0078
-2.197e-03,-0.14,-0.12,-0.003,0.0018
-2.195e-03,-0.14,-0.18,-0.003,-0.009
-2.193e-03,-0.14,-0.12,-0.001,0.003
-2.191e-03,-0.14,-0.18,-0.0034,-0.0074
-2.189e-03,-0.14,-0.12,-0.0034,0.0026
-2.187e-03,-0.14,-0.18,-0.0038,-0.009
-2.185e-03,-0.14,-0.12,-0.0026,0.0022
-2.183e-03,-0.14,-0.18,-0.0022,-0.0094
-2.181e-03,-0.14,-0.1,-0.0078,0.003
-2.180e-03,-0.14,-0.18,-0.0014,-0.0078
-2.178e-03,-0.14,-0.12,-0.0022,0.0022
-2.176e-03,-0.14,-0.16,-0.0022,-0.0078
-2.174e-03,-0.14,-0.12,-0.0014,0.0022
-2.172e-03,-0.14,-0.18,-0.005,-0.0074
-2.170e-03,-0.14,-0.12,-0.0042,0.0022
-2.168e-03,-0.14,-0.18,-0.0022,-0.0078
-2.166e-03,-0.14,-0.12,-0.001,0.0022
-2.164e-03,-0.14,-0.18,-0.0034,-0.0082
-2.162e-03,-0.14,-0.12,0.0014,0.0046
-2.160e-03,-0.14,-0.18,-0.001,-0.0078
-2.158e-03,-0.14,-0.12,-0.0062,0.0022
-2.156e-03,-0.14,-0.18,0.0002,-0.0082
-2.155e-03,-0.16,-0.12,-0.0006,0.0022
-2.153e-03,-0.14,-0.18,-0.0042,-0.0078
-2.151e-03,-0.14,-0.12,-0.0046,0.0022
-2.149e-03,-0.14,-0.18,-0.0026,-0.0102
-2.147e-03,-0.14,-0.12,-0.0006,0.0046
-2.145e-03,-0.14,-0.18,-0.0026,-0.0082
-2.143e-03,-0.14,-0.12,-0.0038,0.0022
-2.141e-03,-0.14,-0.18,-0.0018,-0.0074
-2.139e-03,-0.14,-0.12,-0.003,0.003
-2.137e-03,-0.14,-0.18,-0.0034,-0.0074
-2.135e-03,-0.14,-0.12,-0.0026,0.0022
-2.133e-03,-0.14,-0.18,-0.0026,-0.0074
-2.132e-03,-0.16,-0.12,-0.003,0.0022
-2.130e-03,-0.14,-0.18,0.0002,-0.0066
-2.128e-03,-0.16,-0.12,-0.0014,0.003
-2.126e-03,-0.16,-0.18,-0.005,-0.0082
-2.124e-03,-0.16,-0.12,0.0002,0.0026
-2.122e-03,-0.14,-0.18,-0.0054,-0.0094
-2.120e-03,-0.14,-0.12,-0.0018,0.0018
-2.118e-03,-0.12,-0.18,-0.0034,-0.0078
-2.116e-03,-0.14,-0.12,-0.0018,0.0014
-2.114e-03,-0.16,-0.18,-0.0022,-0.0082
-2.112e-03,-0.14,-0.12,-0.0034,0.0022
-2.110e-03,-0.14,-0.18,-0.0026,-0.0086
-2.108e-03,-0.14,-0.12,-0.0018,0.0022
-2.107e-03,-0.14,-0.18,-0.0006,-0.0082
-2.105e-03,-0.14,-0.12,-0.0014,0.0026
-2.103e-03,-0.14,-0.18,-0.0022,-0.0082
-2.101e-03,-0.14,-0.12,-0.0046,0.0022
-2.099e-03,-0.14,-0.18,-0.003,-0.0078
-2.097e-03,-0.16,-0.12,-0.0026,0.0022
-2.095e-03,-0.14,-0.18,0.001,-0.0074
-2.093e-03,-0.14,-0.12,-0.0038,0.0022
-2.091e-03,-0.16,-0.18,-0.0034,-0.007
-2.089e-03,-0.14,-0.12,-0.0062,0.0018
-2.087e-03,-0.16,-0.18,-0.0058,-0.0082
-2.085e-03,-0.14,-0.12,-0.0038,0.0018
-2.084e-03,-0.14,-0.18,-0.003,-0.0074
-2.082e-03,-0.14,-0.12,-0.0034,0.0022
-2.080e-03,-0.14,-0.18,-0.001,-0.0074
-2.078e-03,-0.14,-0.12,-0.0058,0.003
-2.076e-03,-0.14,-0.18,-0.0038,-0.0098
-2.074e-03,-0.14,-0.12,-0.0026,0.0022
-2.072e-03,-0.14,-0.18,-0.0042,-0.007
-2.070e-03,-0.14,-0.12,-0.003,0.003
-2.068e-03,-0.16,-0.18,-0.0026,-0.007
-2.066e-03,-0.14,-0.12,-0.001,0.003
-2.064e-03,-0.14,-0.18,-0.0038,-0.007
-2.062e-03,-0.16,-0.12,-0.0046,0.0026
-2.060e-03,-0.14,-0.18,-0.0034,-0.0086
-2.059e-03,-0.16,-0.12,-0.0054,0.003
-2.057e-03,-0.14,-0.18,-0.0026,-0.0074
-2.055e-03,-0.14,-0.12,-0.003,0.0038
-2.053e-03,-0.14,-0.18,0.0002,-0.0082
-2.051e-03,-0.14,-0.12,-0.0002,0.003
-2.049e-03,-0.16,-0.18,-0.0014,-0.0074
-2.047e-03,-0.14,-0.12,-0.0054,0.0026
-2.045e-03,-0.14,-0.18,-0.0054,-0.0078
-2.043e-03,-0.14,-0.12,-0.001,0.0026
-2.041e-03,-0.16,-0.18,0.001,-0.0082
-2.039e-03,-0.14,-0.12,-0.001,0.0018
-2.037e-03,-0.14,-0.18,-0.0046,-0.0082
-2.036e-03,-0.14,-0.12,-0.0046,0.0034
-2.034e-03,-0.16,-0.18,-0.0014,-0.0094
-2.032e-03,-0.14,-0.12,-0.0026,0.0022
-2.030e-03,-0.14,-0.18,-0.0046,-0.0082
-2.028e-03,-0.14,-0.12,-0.0022,0.0014
-2.026e-03,-0.14,-0.18,-0.0002,-0.0078
-2.024e-03,-0.16,-0.12,-0.0006,0.003
-2.022e-03,-0.14,-0.18,-0.0034,-0.0078
-2.020e-03,-0.14,-0.12,0.0002,0.0034
-2.018e-03,-0.14,-0.18,-0.0038,-0.0082
-2.016e-03,-0.12,-0.12,-0.0014,0.0018
-2.014e-03,-0.14,-0.16,-0.0022,-0.009
-2.012e-03,-0.16,-0.12,-0.0022,0.0026
-2.011e-03,-0.14,-0.18,-0.0018,-0.0082
-2.009e-03,-0.14,-0.12,-0.001,0.005
-2.007e-03,-0.14,-0.18,-0.0034,-0.0074
-2.005e-03,-0.14,-0.12,-0.0026,0.0022
-2.003e-03,-0.14,-0.16,-0.0026,-0.0082
-2.001e-03,-0.14,-0.12,-0.005,0.0042
-1.999e-03,-0.14,-0.18,-0.003,-0.0082
-1.997e-03,-0.14,-0.12,-0.0034,0.0026
-1.995e-03,-0.14,-0.16,-0.0042,-0.0078
-1.993e-03,-0.14,-0.12,-0.0034,0.0026
-1.991e-03,-0.14,-0.18,-0.0034,-0.0086
-1.989e-03,-0.14,-0.12,-0.001,0.003
-1.988e-03,-0.14,-0.18,-0.0018,-0.0078
-1.986e-03,-0.14,-0.12,-0.005,0.0046
-1.984e-03,-0.14,-0.16,-0.0066,-0.0078
-1.982e-03,-0.14,-0.1,-0.005,0.0042
-1.980e-03,-0.12,-0.18,-0.0042,-0.009
-1.978e-03,-0.14,-0.12,-0.0042,0.0022
-1.976e-03,-0.14,-0.18,-0.0058,-0.0082
-1.974e-03,-0.14,-0.12,-0.0034,0.0018
-1.972e-03,-0.14,-0.18,-0.0026,-0.0078
-1.970e-03,-0.14,-0.1,-0.005,0.001
-1.968e-03,-0.14,-0.18,-0.0046,-0.009
-1.966e-03,-0.14,-0.1,-0.0026,0.0022
-1.964e-03,-0.14,-0.16,-0.0014,-0.009
-1.963e-03,-0.14,-0.12,-0.0058,0.0026
-1.961e-03,-0.14,-0.18,-0.0006,-0.0078
-1.959e-03,-0.12,-0.1,-0.0034,0.0018
-1.957e-03,-0.14,-0.16,-0.0014,-0.0086
-1.955e-03,-0.14,-0.12,-0.0014,0.003
-1.953e-03,-0.14,-0.16,-0.001,-0.0094
-1.951e-03,-0.14,-0.12,-0.0022,0.003
-1.949e-03,-0.12,-0.16,-0.0026,-0.0082
-1.947e-03,-0.14,-0.12,-0.003,0.0034
-1.945e-03,-0.14,-0.18,-0.0042,-0.009
-1.943e-03,-0.16,-0.12,-0.001,0.0022
-1.941e-03,-0.14,-0.16,-0.003,-0.0082
-1.940e-03,-0.12,-0.12,-0.003,0.0026
-1.938e-03,-0.14,-0.16,-0.0026,-0.0078
-1.936e-03,-0.12,-0.1,-0.003,0.0018
-1.934e-03,-0.14,-0.16,-0.0022,-0.0078
-1.932e-03,-0.14,-0.12,-0.0022,0.001
-1.930e-03,-0.12,-0.18,-0.001,-0.0086
-1.928e-03,-0.14,-0.12,-0.001,0.001
-1.926e-03,-0.14,-0.18,-0.0022,-0.0086
-1.924e-03,-0.14,-0.12,-0.0038,0.0018
-1.922e-03,-0.14,-0.16,-0.0018,-0.009
-1.920e-03,-0.14,-0.12,-0.0018,0.0026
-1.918e-03,-0.14,-0.16,-0.0018,-0.0082
-1.916e-03,-0.14,-0.12,-0.0022,0.0026
-1.915e-03,-0.14,-0.16,-0.0006,-0.0082
-1.913e-03,-0.14,-0.12,-0.003,0.0014
-1.911e-03,-0.14,-0.16,-0.0066,-0.0082
-1.909e-03,-0.14,-0.12,-0.0042,0.0022
-1.907e-03,-0.14,-0.16,-0.001,-0.0078
-1.905e-03,-0.14,-0.1,-0.0042,0.0026
-1.903e-03,-0.14,-0.16,-0.003,-0.0082
-1.901e-03,-0.14,-0.12,-0.0014,0.003
-1.899e-03,-0.14,-0.16,-0.0058,-0.0086
-1.897e-03,-0.16,-0.12,-0.0022,0.0022
-1.895e-03,-0.14,-0.16,-0.003,-0.0082
-1.893e-03,-0.14,-0.12,-0.0034,0.0014
-1.892e-03,-0.14,-0.16,-0.0042,-0.0074
-1.890e-03,-0.12,-0.1,-0.0022,0.0018
-1.888e-03,-0.14,-0.16,-0.0034,-0.0082
-1.886e-03,-0.14,-0.1,-0.0022,0.0018
-1.884e-03,-0.14,-0.16,-0.0038,-0.009
-1.882e-03,-0.14,-0.1,-0.0018,0.0018
-1.880e-03,-0.14,-0.16,-0.0034,-0.0074
-1.878e-03,-0.14,-0.1,-0.003,0.0022
-1.876e-03,-0.14,-0.16,-0.0014,-0.0074
-1.874e-03,-0.14,-0.12,-0.0038,0.0022
-1.872e-03,-0.14,-0.16,-0.0042,-0.0078
-1.870e-03,-0.14,-0.12,-0.0042,0.0022
-1.868e-03,-0.14,-0.16,-0.0074,-0.0086
-1.867e-03,-0.14,-0.1,-0.0026,0.0018
-1.865e-03,-0.14,-0.16,-0.0042,-0.0086
-1.863e-03,-0.12,-0.1,-0.0034,0.003
-1.861e-03,-0.14,-0.16,-0.001,-0.0082
-1.859e-03,-0.12,-0.12,-0.0006,0.0022
-1.857e-03,-0.14,-0.16,-0.0046,-0.0078
-1.855e-03,-0.12,-0.12,-0.0022,0.003
-1.853e-03,-0.14,-0.16,-0.0038,-0.0086
-1.851e-03,-0.12,-0.1,-0.0026,0.0022
-1.849e-03,-0.14,-0.16,-0.0018,-0.009
-1.847e-03,-0.12,-0.1,-0.0018,0.0014
-1.845e-03,-0.12,-0.16,-0.0002,-0.0074
-1.844e-03,-0.14,-0.1,-0.0042,0.003
-1.842e-03,-0.14,-0.16,-0.005,-0.0074
-1.840e-03,-0.14,-0.12,-0.0006,0.003
-1.838e-03,-0.12,-0.16,-0.0058,-0.0078
-1.836e-03,-0.14,-0.1,-0.0018,0.0026
-1.834e-03,-0.12,-0.16,-0.003,-0.0098
-1.832e-03,-0.14,-0.1,-0.005,0.0022
-1.830e-03,-0.12,-0.16,-0.003,-0.0082
-1.828e-03,-0.12,-0.1,-0.0034,0.0026
-1.826e-03,-0.12,-0.16,-0.0038,-0.0078
-1.824e-03,-0.14,-0.1,-0.0038,0.0022
-1.822e-03,-0.12,-0.16,-0.0026,-0.0086
-1.820e-03,-0.14,-0.1,-0.0038,0.0026
-1.819e-03,-0.12,-0.16,-0.0026,-0.0066
-1.817e-03,-0.12,-0.1,0.001,0.0022
-1.815e-03,-0.12,-0.16,-0.001,-0.0094
-1.813e-03,-0.14,-0.1,-0.001,0.0022
-1.811e-03,-0.12,-0.16,-0.0058,-0.0078
-1.809e-03,-0.12,-0.1,-0.0062,0.0026
-1.807e-03,-0.12,-0.16,-0.0042,-0.0082
-1.805e-03,-0.14,-0.1,-0.0038,0.0018
-1.803e-03,-0.14,-0.16,-0.0018,-0.0094
-1.801e-03,-0.12,-0.1,-0.0046,0.0018
-1.799e-03,-0.12,-0.16,-0.0014,-0.009
-1.797e-03,-0.12,-0.1,-0.0058,0.0026
-1.796e-03,-0.14,-0.16,-0.0018,-0.009
-1.794e-03,-0.14,-0.1,-0.0022,0.0026
-1.792e-03,-0.12,-0.16,-0.0026,-0.0082
-1.790e-03,-0.14,-0.1,-0.0038,0.003
-1.788e-03,-0.14,-0.16,-0.0022,-0.0082
-1.786e-03,-0.1,-0.1,-0.0042,0.003
-1.784e-03,-0.12,-0.16,-0.0006,-0.0082
-1.782e-03,-0.12,-0.1,-0.0058,0.0038
-1.780e-03,-0.14,-0.16,-0.0038,-0.0086
-1.778e-03,-0.14,-0.1,-0.0006,0.0026
-1.776e-03,-0.12,-0.16,-0.0046,-0.0074
-1.774e-03,-0.12,-0.1,-0.0018,0.0014
-1.772e-03,-0.14,-0.16,-0.003,-0.009
-1.771e-03,-0.14,-0.1,-0.0054,0.0026
-1.769e-03,-0.12,-0.16,-0.0058,-0.009
-1.767e-03,-0.12,-0.1,-0.003,0.0018
-1.765e-03,-0.14,-0.16,-0.0046,-0.0082
-1.763e-03,-0.12,-0.1,-0.0038,0.0034
-1.761e-03,-0.14,-0.16,-0.0034,-0.0082
-1.759e-03,-0.12,-0.1,-0.0026,0.0022
-1.757e-03,-0.14,-0.16,-0.0046,-0.0086
-1.755e-03,-0.12,-0.1,-0.0026,0.0018
-1.753e-03,-0.12,-0.16,-0.003,-0.0086
-1.751e-03,-0.12,-0.1,-0.0026,0.0022
-1.749e-03,-0.12,-0.14,-0.0034,-0.0078
-1.748e-03,-0.12,-0.1,-0.005,0.0026
-1.746e-03,-0.12,-0.16,-0.0006,-0.0094
-1.744e-03,-0.12,-0.1,-0.003,0.0022
-1.742e-03,-0.12,-0.16,-0.0038,-0.0082
-1.740e-03,-0.12,-0.1,-0.0018,0.0022
-1.738e-03,-0.12,-0.16,-0.0026,-0.0078
-1.736e-03,-0.12,-0.1,-0.005,0.0014
-1.734e-03,-0.12,-0.16,-0.0022,-0.0078
-1.732e-03,-0.12,-0.1,-0.003,0.0022
-1.730e-03,-0.12,-0.16,-0.001,-0.0078
-1.728e-03,-0.12,-0.1,-0.0014,0.001
-1.726e-03,-0.12,-0.14,-0.0002,-0.0082
-1.724e-03,-0.1,-0.1,0.0002,0.0034
-1.723e-03,-0.12,-0.16,-0.0034,-0.0074
-1.721e-03,-0.12,-0.1,-0.0046,0.0034
-1.719e-03,-0.12,-0.16,-0.0038,-0.0078
-1.717e-03,-0.12,-0.1,-0.0042,0.0018
-1.715e-03,-0.12,-0.16,-0.0046,-0.0094
-1.713e-03,-0.12,-0.1,-0.0058,0.0026
-1.711e-03,-0.12,-0.16,-0.0038,-0.0094
-1.709e-03,-0.12,-0.1,-0.0018,0.0018
-1.707e-03,-0.12,-0.14,-0.0038,-0.0078
-1.705e-03,-0.14,-0.1,-0.0026,0.0014
-1.703e-03,-0.12,-0.14,-0.0034,-0.0078
-1.701e-03,-0.12,-0.1,-0.0038,0.0022
-1.700e-03,-0.12,-0.14,-0.0046,-0.0082
-1.698e-03,-0.12,-0.1,-0.0022,0.0022
-1.696e-03,-0.12,-0.16,-0.0054,-0.009
-1.694e-03,-0.12,-0.1,-0.0014,0.0018
-1.692e-03,-0.12,-0.14,-0.003,-0.0086
-1.690e-03,-0.12,-0.1,-0.001,0.0022
-1.688e-03,-0.12,-0.16,0.0006,-0.009
-1.686e-03,-0.12,-0.1,-0.0026,0.0042
-1.684e-03,-0.12,-0.14,-0.001,-0.0078
-1.682e-03,-0.12,-0.1,-0.0042,0.0026
-1.680e-03,-0.12,-0.14,-0.0026,-0.009
-1.678e-03,-0.1,-0.1,-0.0062,0.0022
-1.676e-03,-0.12,-0.14,-0.0018,-0.0078
-1.675e-03,-0.12,-0.1,-0.0018,0.0022
-1.673e-03,-0.12,-0.14,-0.0042,-0.0078
-1.671e-03,-0.12,-0.1,-0.0018,0.0034
-1.669e-03,-0.1,-0.16,-0.0038,-0.0082
-1.667e-03,-0.12,-0.1,-0.0018,0.0018
-1.665e-03,-0.12,-0.14,-0.0018,-0.0094
-1.663e-03,-0.12,-0.1,-0.0026,0.0022
-1.661e-03,-0.12,-0.14,-0.0042,-0.0074
-1.659e-03,-0.12,-0.1,-0.0034,0.0014
-1.657e-03,-0.14,-0.14,-0.003,-0.0082
-1.655e-03,-0.12,-0.1,-0.0042,0.0014
-1.653e-03,-0.12,-0.14,0.0002,-0.0086
-1.652e-03,-0.12,-0.1,-0.0058,0.0022
-1.650e-03,-0.12,-0.14,-0.0018,-0.0098
-1.648e-03,-0.12,-0.1,-0.005,0.0014
-1.646e-03,-0.12,-0.14,-0.0058,-0.0082
-1.644e-03,-0.12,-0.1,-0.0054,0.0026
-1.642e-03,-0.1,-0.16,-0.003,-0.0082
-1.640e-03,-0.1,-0.1,-0.0034,0.0018
-1.638e-03,-0.12,-0.16,-0.0034,-0.0078
-1.636e-03,-0.12,-0.08,-0.0046,0.0014
-1.634e-03,-0.12,-0.14,-0.003,-0.0082
-1.632e-03,-0.12,-0.1,-0.0058,0.001
-1.630e-03,-0.12,-0.14,-0.0018,-0.0086
-1.628e-03,-0.12,-0.1,-0.0006,0.0018
-1.627e-03,-0.12,-0.14,-0.0018,-0.009
-1.625e-03,-0.12,-0.1,-0.003,0.0022
-1.623e-03,-0.12,-0.14,-0.0022,-0.0082
-1.621e-03,-0.12,-0.1,-0.005,0.0026
-1.619e-03,-0.12,-0.14,-0.0042,-0.009
-1.617e-03,-0.12,-0.08,-0.003,0.0014
-1.615e-03,-0.1,-0.14,-0.0034,-0.0086
-1.613e-03,-0.12,-0.1,-0.003,0.003
-1.611e-03,-0.12,-0.14,-0.0022,-0.0078
-1.609e-03,-0.1,-0.1,-0.003,0.0014
-1.607e-03,-0.1,-0.14,-0.0014,-0.0082
-1.605e-03,-0.1,-0.08,-0.0002,0.003
-1.604e-03,-0.1,-0.14,-0.0026,-0.0078
-1.602e-03,-0.12,-0.1,-0.0038,0.0018
-1.600e-03,-0.1,-0.14,-0.0014,-0.0082
-1.598e-03,-0.12,-0.08,-0.0006,0.0022
-1.596e-03,-0.12,-0.16,-0.007,-0.0078
-1.594e-03,-0.12,-0.1,-0.0034,0.0022
-1.592e-03,-0.12,-0.14,-0.0026,-0.0078
-1.590e-03,-0.1,-0.08,-0.003,0.0022
-1.588e-03,-0.12,-0.14,-0.0022,-0.0082
-1.586e-03,-0.12,-0.08,-0.0018,0.003
-1.584e-03,-0.1,-0.14,-0.0038,-0.009
-1.582e-03,-0.12,-0.08,-0.0042,0.0018
-1.580e-03,-0.12,-0.14,0.0002,-0.0078
-1.579e-03,-0.1,-0.08,-0.0046,0.0014
-1.577e-03,-0.12,-0.14,-0.0022,-0.0082
-1.575e-03,-0.1,-0.08,-0.0042,0.0018
-1.573e-03,-0.08,-0.14,-0.001,-0.0078
-1.571e-03,-0.1,-0.08,-0.0038,0.0022
-1.569e-03,-0.12,-0.14,-0.0026,-0.0086
-1.567e-03,-0.1,-0.1,-0.0018,0.0018
-1.565e-03,-0.12,-0.14,-0.003,-0.009
-1.563e-03,-0.12,-0.08,-0.0054,0.0018
-1.561e-03,-0.12,-0.14,-0.0042,-0.0086
-1.559e-03,-0.12,-0.1,-0.003,0.003
-1.557e-03,-0.1,-0.14,-0.0038,-0.0078
-1.555e-03,-0.1,-0.08,-0.0006,0.0038
-1.554e-03,-0.12,-0.14,-0.0026,-0.0086
-1.552e-03,-0.1,-0.08,-0.003,0.0022
-1.550e-03,-0.1,-0.14,-0.0054,-0.0082
-1.548e-03,-0.12,-0.1,-0.0026,0.0018
-1.546e-03,-0.1,-0.14,-0.0026,-0.0078
-1.544e-03,-0.1,-0.1,-0.0038,0.003
-1.542e-03,-0.12,-0.14,-0.0054,-0.0082
-1.540e-03,-0.1,-0.08,-0.003,0.0014
-1.538e-03,-0.12,-0.14,-0.0014,-0.0086
-1.536e-03,-0.1,-0.08,-0.0038,0.001
-1.534e-03,-0.12,-0.14,-0.0062,-0.0082
-1.532e-03,-0.1,-0.08,-0.0022,0.0014
-1.531e-03,-0.1,-0.14,-0.0062,-0.0094
-1.529e-03,-0.1,-0.08,-0.0026,0.0018
-1.527e-03,-0.1,-0.14,-0.0034,-0.0094
-1.525e-03,-0.12,-0.08,-0.0022,0.0018
-1.523e-03,-0.12,-0.14,-0.0026,-0.009
-1.521e-03,-0.1,-0.1,-0.0022,0.0018
-1.519e-03,-0.1,-0.14,-0.0038,-0.0078
-1.517e-03,-0.12,-0.08,-0.0026,0.0022
-1.515e-03,-0.12,-0.14,-0.0034,-0.0086
-1.513e-03,-0.1,-0.08,-0.0054,0.0018
-1.511e-03,-0.1,-0.14,-0.005,-0.0082
-1.509e-03,-0.1,-0.08,-0.0058,0.0022
-1.507e-03,-0.1,-0.14,-0.0026,-0.0082
-1.506e-03,-0.1,-0.08,-0.0018,0.0018
-1.504e-03,-0.1,-0.14,-0.0034,-0.0086
-1.502e-03,-0.12,-0.08,-0.0022,0.003
-1.500e-03,-0.1,-0.14,-0.0034,-0.0086
-1.498e-03,-0.12,-0.1,-0.0058,0.0018
-1.496e-03,-0.1,-0.14,-0.001,-0.009
-1.494e-03,-0.1,-0.08,-0.0014,0.003
-1.492e-03,-0.1,-0.14,-0.0062,-0.0086
-1.490e-03,-0.12,-0.08,-0.0046,0.0018
-1.488e-03,-0.1,-0.14,-0.0002,-0.007
-1.486e-03,-0.12,-0.08,-0.003,0.0038
-1.484e-03,-0.12,-0.14,-0.0042,-0.009
-1.483e-03,-0.1,-0.08,-0.003,0.0022
-1.481e-03,-0.1,-0.14,-0.0018,-0.009
-1.479e-03,-0.12,-0.08,-0.0022,0.0018
-1.477e-03,-0.1,-0.14,-0.0034,-0.0074
-1.475e-03,-0.12,-0.08,-0.0014,0.0018
-1.473e-03,-0.1,-0.14,-0.0022,-0.009
-1.471e-03,-0.12,-0.08,-0.0058,0.0026
-1.469e-03,-0.1,-0.14,-0.0046,-0.0078
-1.467e-03,-0.08,-0.08,-0.0014,0.0018
-1.465e-03,-0.1,-0.14,-0.003,-0.0086
-1.463e-03,-0.1,-0.08,-0.001,0.0022
-1.461e-03,-0.1,-0.14,-0.0038,-0.009
-1.459e-03,-0.1,-0.08,-0.0074,0.001
-1.458e-03,-0.1,-0.14,-0.003,-0.0106
-1.456e-03,-0.1,-0.08,-0.0022,0.0018
-1.454e-03,-0.12,-0.14,-0.0038,-0.0086
-1.452e-03,-0.1,-0.08,-0.0006,0.0026
-1.450e-03,-0.1,-0.14,-0.0042,-0.0094
-1.448e-03,-0.1,-0.08,0.0002,0.0022
-1.446e-03,-0.1,-0.14,-0.0018,-0.0078
-1.444e-03,-0.1,-0.08,-0.0026,0.0018
-1.442e-03,-0.12,-0.14,-0.0046,-0.0082
-1.440e-03,-0.1,-0.08,-0.003,0.001
-1.438e-03,-0.1,-0.14,-0.0038,-0.0086
-1.436e-03,-0.1,-0.08,-0.0034,0.0018
-1.435e-03,-0.1,-0.14,-0.0054,-0.009
-1.433e-03,-0.12,-0.08,-0.0054,0.0014
-1.431e-03,-0.1,-0.14,-0.0022,-0.009
-1.429e-03,-0.1,-0.08,-0.003,0.0026
-1.427e-03,-0.1,-0.14,-0.0022,-0.0086
-1.425e-03,-0.1,-0.08,-0.0006,0.001
-1.423e-03,-0.1,-0.14,-0.0026,-0.0094
-1.421e-03,-0.12,-0.08,-0.0018,0.0022
-1.419e-03,-0.1,-0.14,-0.0034,-0.009
-1.417e-03,-0.1,-0.08,-0.003,0.0026
-1.415e-03,-0.1,-0.14,-0.0042,-0.0086
-1.413e-03,-0.1,-0.08,-0.0046,0.0014
-1.411e-03,-0.1,-0.12,-0.0042,-0.0082
-1.410e-03,-0.1,-0.08,-0.0042,0.003
-1.408e-03,-0.1,-0.14,-0.0022,-0.0082
-1.406e-03,-0.1,-0.08,-0.0026,0.0022
-1.404e-03,-0.1,-0.14,-0.003,-0.009
-1.402e-03,-0.1,-0.08,-0.003,0.001
-1.400e-03,-0.1,-0.14,-0.0026,-0.0086
-1.398e-03,-0.1,-0.08,-0.0038,0.0022
-1.396e-03,-0.1,-0.14,-0.0042,-0.0086
-1.394e-03,-0.1,-0.08,-0.0038,0.0022
-1.392e-03,-0.1,-0.12,-0.0042,-0.0086
-1.390e-03,-0.12,-0.08,-0.003,0.0014
-1.388e-03,-0.1,-0.12,-0.0022,-0.009
-1.387e-03,-0.1,-0.08,-0.0034,0.0014
-1.385e-03,-0.1,-0.12,-0.0026,-0.0086
-1.383e-03,-0.1,-0.08,-0.0054,0.0006
-1.381e-03,-0.1,-0.12,-0.0022,-0.009
-1.379e-03,-0.08,-0.08,-0.0038,0.0014
-1.377e-03,-0.1,-0.12,-0.0038,-0.009
-1.375e-03,-0.08,-0.08,-0.0054,0.0014
-1.373e-03,-0.1,-0.12,-0.0026,-0.009
-1.371e-03,-0.1,-0.08,-0.005,0.0018
-1.369e-03,-0.1,-0.14,-0.003,-0.0086
-1.367e-03,-0.12,-0.08,-0.001,0.0018
-1.365e-03,-0.1,-0.12,-0.0014,-0.009
-1.363e-03,-0.1,-0.08,-0.0046,0.0018
-1.362e-03,-0.1,-0.14,-0.0026,-0.0102
-1.360e-03,-0.1,-0.08,-0.0014,0.001
-1.358e-03,-0.1,-0.12,-0.0062,-0.0078
-1.356e-03,-0.1,-0.08,-0.003,0.001
-1.354e-03,-0.1,-0.12,-0.003,-0.0094
-1.352e-03,-0.1,-0.08,-0.0034,0.0014
-1.350e-03,-0.1,-0.12,-0.0038,-0.0078
-1.348e-03,-0.1,-0.08,-0.0034,0.0022
-1.346e-03,-0.1,-0.12,-0.0022,-0.009
-1.344e-03,-0.1,-0.08,-0.0058,0.0014
-1.342e-03,-0.1,-0.12,-0.0046,-0.0086
-1.340e-03,-0.1,-0.08,-0.005,0.0014
-1.339e-03,-0.1,-0.12,-0.0034,-0.009
-1.337e-03,-0.1,-0.06,-0.0058,0.0018
-1.335e-03,-0.1,-0.14,-0.0026,-0.0098
-1.333e-03,-0.1,-0.08,-0.0038,0.0018
-1.331e-03,-0.1,-0.12,-0.0042,-0.0082
-1.329e-03,-0.1,-0.06,-0.0034,0.0018
-1.327e-03,-0.08,-0.12,-0.0038,-0.0086
-1.325e-03,-0.1,-0.08,-0.005,0.0018
-1.323e-03,-0.1,-0.12,-0.0054,-0.009
-1.321e-03,-0.08,-0.08,-0.0026,0.001
-1.319e-03,-0.1,-0.12,-0.0054,-0.0082
-1.317e-03,-0.08,-0.06,0.0002,0.0014
-1.315e-03,-0.1,-0.12,-0.0066,-0.0094
-1.314e-03,-0.1,-0.08,-0.0034,0.0022
-1.312e-03,-0.1,-0.12,-0.0038,-0.0086
-1.310e-03,-0.1,-0.08,-0.003,0.0018
-1.308e-03,-0.1,-0.12,-0.0054,-0.0094
-1.306e-03,-0.1,-0.06,-0.0058,0.0018
-1.304e-03,-0.1,-0.12,-0.0034,-0.009
-1.302e-03,-0.1,-0.08,-0.005,0.001
-1.300e-03,-0.1,-0.12,-0.0042,-0.0098
-1.298e-03,-0.1,-0.08,-0.003,0.0018
-1.296e-03,-0.1,-0.12,-0.0046,-0.0086
-1.294e-03,-0.1,-0.06,0.0006,0.0022
-1.292e-03,-0.1,-0.12,-0.0018,-0.009
-1.291e-03,-0.1,-0.06,-0.003,0.003
-1.289e-03,-0.1,-0.12,-0.0026,-0.0086
-1.287e-03,-0.1,-0.08,-0.0046,0.003
-1.285e-03,-0.08,-0.12,-0.0062,-0.0086
-1.283e-03,-0.1,-0.06,-0.0026,0.0018
-1.281e-03,-0.1,-0.12,-0.0038,-0.0078
-1.279e-03,-0.1,-0.08,-0.0038,0.0018
-1.277e-03,-0.1,-0.12,-0.0054,-0.0102
-1.275e-03,-0.1,-0.08,-0.0058,0.003
-1.273e-03,-0.1,-0.12,-0.001,-0.0094
-1.271e-03,-0.1,-0.06,-0.0042,0.001
-1.269e-03,-0.1,-0.12,-0.0058,-0.0086
-1.267e-03,-0.1,-0.08,-0.0018,0.0018
-1.266e-03,-0.1,-0.12,-0.005,-0.0082
-1.264e-03,-0.1,-0.06,-0.005,0.0022
-1.262e-03,-0.1,-0.12,-0.0034,-0.0082
-1.260e-03,-0.08,-0.08,-0.0054,0.0018
-1.258e-03,-0.1,-0.12,-0.0018,-0.0094
-1.256e-03,-0.08,-0.06,-0.0014,0.0014
-1.254e-03,-0.1,-0.12,-0.0006,-0.009
-1.252e-03,-0.08,-0.06,-0.0022,0.001
-1.250e-03,-0.1,-0.12,-0.001,-0.009
-1.248e-03,-0.08,-0.08,-0.0014,0.001
-1.246e-03,-0.1,-0.12,-0.0046,-0.0086
-1.244e-03,-0.1,-0.06,-0.0038,0.0018
-1.243e-03,-0.08,-0.12,-0.0014,-0.0086
-1.241e-03,-0.08,-0.08,-0.0034,0.0014
-1.239e-03,-0.08,-0.12,-0.0058,-0.0086
-1.237e-03,-0.1,-0.06,-0.003,0.003
-1.235e-03,-0.08,-0.12,-0.001,-0.0086
-1.233e-03,-0.1,-0.06,-0.0002,0.001
-1.231e-03,-0.1,-0.12,-0.0058,-0.0086
-1.229e-03,-0.08,-0.06,-0.003,0.0014
-1.227e-03,-0.1,-0.12,-0.0034,-0.0086
-1.225e-03,-0.08,-0.06,-0.0022,0.0018
-1.223e-03,-0.08,-0.12,-0.0054,-0.0082
-1.221e-03,-0.1,-0.06,-0.003,0.0018
-1.219e-03,-0.1,-0.12,-0.0046,-0.0086
-1.218e-03,-0.08,-0.08,-0.0058,0.0006
-1.216e-03,-0.08,-0.12,-0.0022,-0.0082
-1.214e-03,-0.1,-0.08,-0.0014,0.0014
-1.212e-03,-0.1,-0.14,-0.0038,-0.0102
-1.210e-03,-0.1,-0.06,-0.0026,0.0006
-1.208e-03,-0.1,-0.12,-0.0002,-0.0082
-1.206e-03,-0.08,-0.06,-0.0018,0.0014
-1.204e-03,-0.1,-0.12,-0.0022,-0.009
-1.202e-03,-0.08,-0.06,-0.0034,0.001
-1.200e-03,-0.08,-0.12,-0.0042,-0.009
-1.198e-03,-0.08,-0.06,-0.009,0.001
-1.196e-03,-0.1,-0.12,-0.0026,-0.0082
-1.195e-03,-0.08,-0.06,-0.0058,0.001
-1.193e-03,-0.08,-0.12,-0.0042,-0.0094
-1.191e-03,-0.08,-0.06,-0.005,0.001
-1.189e-03,-0.08,-0.12,-0.0034,-0.0086
-1.187e-03,-0.08,-0.06,-0.0034,0.001
-1.185e-03,-0.08,-0.12,-0.0018,-0.0098
-1.183e-03,-0.1,-0.06,-0.0046,0.0006
-1.181e-03,-0.08,-0.12,-0.005,-0.0086
-1.179e-03,-0.1,-0.06,-0.0026,0.001
-1.177e-03,-0.08,-0.12,-0.0046,-0.0094
-1.175e-03,-0.08,-0.06,-0.0026,0.0014
-1.173e-03,-0.08,-0.12,-0.0022,-0.0086
-1.171e-03,-0.08,-0.06,-0.003,0.0018
-1.170e-03,-0.1,-0.12,-0.003,-0.009
-1.168e-03,-0.08,-0.06,-0.005,0.001
-1.166e-03,-0.1,-0.12,-0.0022,-0.0086
-1.164e-03,-0.08,-0.06,-0.0038,0.0026
-1.162e-03,-0.08,-0.12,-0.0034,-0.0098
-1.160e-03,-0.08,-0.06,-0.0042,0.001
-1.158e-03,-0.08,-0.12,-0.0054,-0.009
-1.156e-03,-0.08,-0.06,-0.0038,0.0014
-1.154e-03,-0.08,-0.12,-0.0054,-0.009
-1.152e-03,-0.08,-0.06,-0.0034,0.001
-1.150e-03,-0.08,-0.12,-0.0054,-0.0082
-1.148e-03,-0.1,-0.06,-0.0018,0.0026
-1.147e-03,-0.08,-0.12,-0.0026,-0.0086
-1.145e-03,-0.1,-0.06,-0.0038,0.001
-1.143e-03,-0.08,-0.12,-0.0038,-0.009
-1.141e-03,-0.08,-0.06,-0.0034,0.0018
-1.139e-03,-0.08,-0.12,-0.0046,-0.0094
-1.137e-03,-0.08,-0.06,-0.001,0.0014
-1.135e-03,-0.1,-0.12,-0.0054,-0.0082
-1.133e-03,-0.08,-0.06,-0.0022,0.001
-1.131e-03,-0.08,-0.1,-0.0038,-0.0086
-1.129e-03,-0.08,-0.06,-0.0034,0.0014
-1.127e-03,-0.08,-0.12,-0.0062,-0.0086
-1.125e-03,-0.08,-0.06,-0.0026,0.003
-1.123e-03,-0.08,-0.12,-0.0034,-0.0086
-1.122e-03,-0.1,-0.06,-0.003,0.0022
-1.120e-03,-0.08,-0.1,-0.0038,-0.009
-1.118e-03,-0.1,-0.06,-0.0034,0.0018
-1.116e-03,-0.08,-0.12,-0.0054,-0.0086
-1.114e-03,-0.08,-0.06,-0.0022,0.0018
-1.112e-03,-0.08,-0.12,-0.0018,-0.009
-1.110e-03,-0.08,-0.06,-0.0022,0.001
-1.108e-03,-0.08,-0.12,-0.0042,-0.009
-1.106e-03,-0.08,-0.06,-0.0014,0.0018
-1.104e-03,-0.08,-0.12,-0.0058,-0.0086
-1.102e-03,-0.08,-0.06,-0.0046,0.0026
-1.100e-03,-0.08,-0.1,-0.003,-0.0078
-1.099e-03,-0.08,-0.06,-0.0038,0.0022
-1.097e-03,-0.08,-0.12,-0.0058,-0.0102
-1.095e-03,-0.08,-0.06,-0.0026,0.001
-1.093e-03,-0.08,-0.1,-0.0042,-0.0082
-1.091e-03,-0.08,-0.06,-0.003,0.003
-1.089e-03,-0.08,-0.1,-0.0038,-0.0082
-1.087e-03,-0.08,-0.06,-0.0022,0.0018
-1.085e-03,-0.1,-0.1,-0.003,-0.0094
-1.083e-03,-0.08,-0.06,-0.001,0.0018
-1.081e-03,-0.08,-0.1,-0.0046,-0.0094
-1.079e-03,-0.08,-0.06,-0.0038,0.0018
-1.077e-03,-0.08,-0.12,-0.0058,-0.0102
-1.075e-03,-0.08,-0.06,-0.0034,0.0006
-1.074e-03,-0.08,-0.1,-0.0046,-0.0082
-1.072e-03,-0.08,-0.06,-0.003,0.0022
-1.070e-03,-0.08,-0.1,-0.003,-0.0086
-1.068e-03,-0.08,-0.06,-0.0046,0.0018
-1.066e-03,-0.08,-0.1,-0.0026,-0.0086
-1.064e-03,-0.08,-0.06,-0.003,0.001
-1.062e-03,-0.08,-0.1,-0.0042,-0.0086
-1.060e-03,-0.08,-0.06,-0.0042,0.0002
-1.058e-03,-0.08,-0.1,-0.0054,-0.0086
-1.056e-03,-0.08,-0.06,-0.0034,0.0034
-1.054e-03,-0.08,-0.1,-0.0018,-0.0086
-1.052e-03,-0.08,-0.04,-0.0034,0.0014
-1.051e-03,-0.08,-0.1,-0.0026,-0.0082
-1.049e-03,-0.08,-0.06,-0.0042,0.001
-1.047e-03,-0.08,-0.1,-0.005,-0.0086
-1.045e-03,-0.08,-0.06,-0.0046,0.0018
-1.043e-03,-0.08,-0.12,-0.0042,-0.0086
-1.041e-03,-0.08,-0.06,-0.0034,0.0018
-1.039e-03,-0.08,-0.12,-0.0026,-0.009
-1.037e-03,-0.06,-0.06,-0.0026,0.0022
-1.035e-03,-0.08,-0.1,-0.0034,-0.0086
-1.033e-03,-0.06,-0.06,-0.0026,0.0018
-1.031e-03,-0.08,-0.1,-0.0038,-0.009
-1.029e-03,-0.06,-0.06,-0.0034,0.0022
-1.027e-03,-0.08,-0.1,-0.0014,-0.0082
-1.026e-03,-0.1,-0.06,-0.0054,0.0014
-1.024e-03,-0.08,-0.1,-0.0022,-0.0098
-1.022e-03,-0.08,-0.06,-0.0042,0.0018
-1.020e-03,-0.08,-0.1,0.0002,-0.0082
-1.018e-03,-0.08,-0.06,-0.0022,0.0018
-1.016e-03,-0.06,-0.1,-0.0034,-0.0086
-1.014e-03,-0.08,-0.06,-0.0022,0.0018
-1.012e-03,-0.08,-0.1,-0.0022,-0.0086
-1.010e-03,-0.08,-0.06,-0.007,0.0022
-1.008e-03,-0.08,-0.1,-0.0006,-0.0098
-1.006e-03,-0.08,-0.06,-0.0042,0.001
-1.004e-03,-0.08,-0.1,-0.0042,-0.0086
-1.003e-03,-0.08,-0.06,-0.0046,0.0018
-1.001e-03,-0.08,-0.1,-0.0062,-0.0082
-9.987e-04,-0.08,-0.06,-0.0042,0.0014
-9.967e-04,-0.06,-0.1,-0.0062,-0.009
-9.948e-04,-0.08,-0.06,-0.0026,0.0022
-9.929e-04,-0.08,-0.1,-0.003,-0.0086
-9.910e-04,-0.06,-0.04,-0.0042,0.0022
-9.891e-04,-0.06,-0.1,-0.0074,-0.0094
-9.871e-04,-0.08,-0.04,-0.0038,0.001
-9.852e-04,-0.08,-0.1,-0.0054,-0.0082
-9.833e-04,-0.06,-0.04,-0.0054,0.0018
-9.814e-04,-0.08,-0.1,-0.0026,-0.0098
-9.795e-04,-0.08,-0.04,-0.0002,0.0022
-9.775e-04,-0.06,-0.1,-0.003,-0.0086
-9.756e-04,-0.08,-0.04,-0.003,0.0018
-9.737e-04,-0.06,-0.1,-0.0026,-0.0086
-9.718e-04,-0.08,-0.04,-0.003,0.0018
-9.699e-04,-0.08,-0.1,-0.0042,-0.0082
-9.679e-04,-0.08,-0.04,-0.0038,0.0018
-9.660e-04,-0.08,-0.1,-0.003,-0.009
-9.641e-04,-0.08,-0.04,-0.0046,0.0022
-9.622e-04,-0.06,-0.1,-0.0038,-0.0094
-9.603e-04,-0.08,-0.04,-0.0046,0.0018
-9.583e-04,-0.08,-0.1,-0.005,-0.0078
-9.564e-04,-0.08,-0.06,-0.0046,0.0026
-9.545e-04,-0.08,-0.1,-0.0038,-0.0102
-9.526e-04,-0.08,-0.04,-0.003,0.0014
-9.507e-04,-0.08,-0.1,-0.005,-0.0086
-9.487e-04,-0.08,-0.06,-0.0038,0.0006
-9.468e-04,-0.08,-0.1,-0.0042,-0.0082
-9.449e-04,-0.08,-0.04,-0.005,0.0022
-9.430e-04,-0.08,-0.1,-0.0042,-0.0082
-9.411e-04,-0.06,-0.04,-0.0002,0.0026
-9.391e-04,-0.06,-0.1,-0.0046,-0.0098
-9.372e-04,-0.08,-0.04,-0.0038,0.001
-9.353e-04,-0.08,-0.1,-0.0026,-0.009
-9.334e-04,-0.08,-0.04,-0.0046,0.0022
-9.315e-04,-0.06,-0.1,-0.0046,-0.0094
-9.295e-04,-0.06,-0.06,-0.0046,0.001
-9.276e-04,-0.1,-0.1,-0.0022,-0.0086
-9.257e-04,-0.08,-0.04,-0.005,0.0014
-9.238e-04,-0.06,-0.1,-0.0038,-0.0102
-9.219e-04,-0.08,-0.04,-0.0054,0.0006
-9.199e-04,-0.08,-0.1,-0.0042,-0.0086
-9.180e-04,-0.06,-0.04,-0.0026,0.0022
-9.161e-04,-0.06,-0.1,-0.0026,-0.0082
-9.142e-04,-0.06,-0.04,-0.0038,0.0026
-9.123e-04,-0.06,-0.1,-0.0026,-0.0086
-9.103e-04,-0.06,-0.04,-0.0034,0.0018
-9.084e-04,-0.06,-0.1,-0.0014,-0.0102
-9.065e-04,-0.06,-0.04,-0.005,0.0018
-9.046e-04,-0.08,-0.1,-0.005,-0.0074
-9.027e-04,-0.06,-0.04,-0.0042,0.0018
-9.007e-04,-0.08,-0.1,-0.0038,-0.0086
-8.988e-04,-0.06,-0.04,-0.0042,0.0022
-8.969e-04,-0.08,-0.1,-0.003,-0.0086
-8.950e-04,-0.08,-0.04,-0.0034,0.0014
-8.931e-04,-0.06,-0.1,-0.0054,-0.0082
-8.911e-04,-0.06,-0.04,-0.0038,0.001
-8.892e-04,-0.08,-0.1,-0.0046,-0.0086
-8.873e-04,-0.06,-0.04,-0.0066,0.0022
-8.854e-04,-0.06,-0.1,-0.0038,-0.0086
-8.835e-04,-0.06,-0.04,-0.0026,0.0014
-8.815e-04,-0.06,-0.1,-0.0058,-0.009
-8.796e-04,-0.06,-0.04,-0.0042,0.0022
-8.777e-04,-0.06,-0.1,-0.0046,-0.009
-8.758e-04,-0.08,-0.04,-0.0062,0.0022
-8.739e-04,-0.06,-0.1,-0.0058,-0.0086
-8.719e-04,-0.08,-0.04,-0.005,0.0018
-8.700e-04,-0.06,-0.1,-0.0014,-0.0086
-8.681e-04,-0.06,-0.04,-0.0042,0.001
-8.662e-04,-0.06,-0.1,-0.0042,-0.0086
-8.643e-04,-0.08,-0.04,-0.0034,0.0022
-8.623e-04,-0.06,-0.1,-0.0026,-0.0086
-8.604e-04,-0.08,-0.04,-0.0046,0.0006
-8.585e-04,-0.06,-0.08,-0.0034,-0.009
-8.566e-04,-0.06,-0.04,-0.003,0.0014
-8.547e-04,-0.06,-0.1,-0.0054,-0.0102
-8.527e-04,-0.06,-0.04,-0.0006,0.001
-8.508e-04,-0.06,-0.1,-0.0066,-0.009
-8.489e-04,-0.06,-0.04,-0.0046,0.0014
-8.470e-04,-0.06,-0.1,-0.003,-0.0102
-8.451e-04,-0.06,-0.04,-0.001,0.001
-8.431e-04,-0.06,-0.1,-0.0038,-0.0098
-8.412e-04,-0.06,-0.04,-0.0038,0.001
-8.393e-04,-0.06,-0.1,-0.0026,-0.009
-8.374e-04,-0.08,-0.04,-0.0062,0.0022
-8.355e-04,-0.06,-0.1,-0.0034,-0.0082
-8.335e-04,-0.06,-0.04,-0.0006,0.0006
-8.316e-04,-0.06,-0.1,-0.005,-0.0098
-8.297e-04,-0.06,-0.04,-0.0046,0.0018
-8.278e-04,-0.06,-0.1,-0.0042,-0.0094
-8.259e-04,-0.06,-0.04,-0.0006,0.0014
-8.239e-04,-0.06,-0.1,-0.0058,-0.0086
-8.220e-04,-0.06,-0.02,-0.003,0.001
-8.201e-04,-0.06,-0.1,-0.0042,-0.0086
-8.182e-04,-0.06,-0.04,-0.003,0.001
-8.163e-04,-0.06,-0.1,-0.003,-0.0082
-8.143e-04,-0.08,-0.04,-0.0046,0.003
-8.124e-04,-0.06,-0.08,-0.0022,-0.009
-8.105e-04,-0.08,-0.04,-0.0018,0.0014
-8.086e-04,-0.04,-0.1,-0.0018,-0.0094
-8.067e-04,-0.06,-0.04,-0.0034,0.0018
-8.047e-04,-0.06,-0.1,-0.0026,-0.0082
-8.028e-04,-0.06,-0.04,-0.0002,0.0014
-8.009e-04,-0.06,-0.1,-0.0042,-0.009
-7.990e-04,-0.06,-0.04,-0.0034,0.001
-7.971e-04,-0.06,-0.1,-0.0058,-0.0094
-7.951e-04,-0.06,-0.02,-0.0042,0.0034
-7.932e-04,-0.06,-0.08,-0.0046,-0.0094
-7.913e-04,-0.06,-0.04,-0.005,0.0014
-7.894e-04,-0.06,-0.08,-0.003,-0.0086
-7.875e-04,-0.06,-0.04,-0.0022,0.0018
-7.855e-04,-0.06,-0.1,-0.0042,-0.0086
-7.836e-04,-0.08,-0.04,-0.0026,0.0022
-7.817e-04,-0.06,-0.1,-0.0046,-0.009
-7.798e-04,-0.06,-0.04,-0.003,0.0014
-7.778e-04,-0.06,-0.08,-0.0038,-0.0086
-7.759e-04,-0.06,-0.04,-0.0058,0.0022
-7.740e-04,-0.06,-0.1,-0.0026,-0.0086
-7.721e-04,-0.06,-0.02,-0.0042,0.0018
-7.702e-04,-0.06,-0.1,-0.0046,-0.0086
-7.682e-04,-0.08,-0.04,-0.0042,0.0014
-7.663e-04,-0.08,-0.08,-0.0022,-0.0078
-7.644e-04,-0.06,-0.04,-0.0038,0.0022
-7.625e-04,-0.08,-0.1,-0.0026,-0.0094
-7.606e-04,-0.06,-0.04,-0.0026,0.0018
-7.586e-04,-0.08,-0.1,-0.0042,-0.0086
-7.567e-04,-0.06,-0.02,-0.0042,0.0014
-7.548e-04,-0.06,-0.1,-0.0062,-0.009
-7.529e-04,-0.06,-0.04,-0.0066,0.001
-7.510e-04,-0.06,-0.1,-0.0022,-0.0098
-7.490e-04,-0.06,-0.04,-0.0058,0.0022
-7.471e-04,-0.06,-0.1,-0.0042,-0.0082
-7.452e-04,-0.06,-0.04,-0.0034,0.0014
-7.433e-04,-0.04,-0.08,-0.0046,-0.0082
-7.414e-04,-0.06,-0.04,-0.0026,0.0026
-7.394e-04,-0.06,-0.1,-0.0062,-0.0094
-7.375e-04,-0.06,-0.04,-0.003,0.0018
-7.356e-04,-0.06,-0.08,-0.0054,-0.0082
-7.337e-04,-0.06,-0.04,0.0014,0.0018
-7.318e-04,-0.04,-0.08,-0.0054,-0.0094
-7.298e-04,-0.06,-0.04,-0.0038,0.0018
-7.279e-04,-0.06,-0.08,-0.0018,-0.0098
-7.260e-04,-0.06,-0.02,-0.0046,0.0018
-7.241e-04,-0.06,-0.08,-0.005,-0.0094
-7.222e-04,-0.06,-0.02,-0.0034,0.0014
-7.202e-04,-0.06,-0.08,-0.001,-0.0086
-7.183e-04,-0.06,-0.02,-0.0054,0.0014
-7.164e-04,-0.06,-0.08,-0.005,-0.0106
-7.145e-04,-0.06,-0.04,-0.0014,0.0026
-7.126e-04,-0.06,-0.1,-0.0042,-0.011
-7.106e-04,-0.04,-0.04,-0.003,0.0022
-7.087e-04,-0.06,-0.1,-0.003,-0.0086
-7.068e-04,-0.06,-0.04,-0.0034,0.0022
-7.049e-04,-0.06,-0.08,-0.0046,-0.0086
-7.030e-04,-0.06,-0.02,-0.003,0.0018
-7.010e-04,-0.06,-0.08,-0.003,-0.009
-6.991e-04,-0.06,-0.04,-0.003,0.0014
-6.972e-04,-0.04,-0.08,-0.0034,-0.0086
-6.953e-04,-0.06,-0.02,-0.0038,0.0014
-6.934e-04,-0.06,-0.1,-0.0046,-0.0078
-6.914e-04,-0.06,-0.02,-0.0042,0.0014
-6.895e-04,-0.06,-0.08,-0.0018,-0.009
-6.876e-04,-0.08,-0.04,-0.0042,0.0018
-6.857e-04,-0.06,-0.08,-0.0038,-0.0094
-6.838e-04,-0.06,-0.02,0.0002,0.0018
-6.818e-04,-0.06,-0.1,-0.0046,-0.0098
-6.799e-04,-0.06,-0.04,-0.0074,0.0022
-6.780e-04,-0.06,-0.08,-0.0038,-0.0086
-6.761e-04,-0.06,-0.04,-0.0006,0.0022
-6.742e-04,-0.04,-0.1,-0.001,-0.0098
-6.722e-04,-0.06,-0.02,0.0006,0.001
-6.703e-04,-0.06,-0.08,-0.005,-0.009
-6.684e-04,-0.04,-0.02,-0.0042,0.0014
-6.665e-04,-0.06,-0.08,-0.0042,-0.0094
-6.646e-04,-0.06,-0.02,-0.0034,0.0014
-6.626e-04,-0.06,-0.08,-0.0038,-0.009
-6.607e-04,-0.06,-0.02,-0.0058,0.0022
-6.588e-04,-0.06,-0.08,-0.0042,-0.0078
-6.569e-04,-0.06,-0.02,-0.0034,0.0018
-6.550e-04,-0.06,-0.08,-0.0054,-0.0086
-6.530e-04,-0.06,-0.04,-0.0038,0.0014
-6.511e-04,-0.06,-0.08,-0.0022,-0.009
-6.492e-04,-0.06,-0.02,-0.0034,0.0018
-6.473e-04,-0.06,-0.08,-0.0034,-0.0082
-6.454e-04,-0.06,-0.02,-0.005,0.0014
-6.434e-04,-0.06,-0.08,-0.0022,-0.0094
-6.415e-04,-0.06,-0.02,-0.0026,0.0022
-6.396e-04,-0.06,-0.08,-0.0038,-0.0098
-6.377e-04,-0.06,-0.02,-0.0034,0.001
-6.358e-04,-0.04,-0.08,-0.0042,-0.0098
-6.338e-04,-0.06,-0.02,-0.0006,0.0006
-6.319e-04,-0.06,-0.08,-0.0014,-0.0082
-6.300e-04,-0.04,-0.02,-0.0018,0.0006
-6.281e-04,-0.04,-0.08,-0.003,-0.009
-6.262e-04,-0.04,-0.02,-0.0034,0.0026
-6.242e-04,-0.06,-0.08,-0.005,-0.0102
-6.223e-04,-0.06,-0.02,-0.0042,0.0014
-6.204e-04,-0.06,-0.08,-0.0018,-0.0094
-6.185e-04,-0.06,-0.02,-0.0014,0.003
-6.166e-04,-0.04,-0.08,-0.0034,-0.0098
-6.146e-04,-0.04,-0.02,-0.0026,0.0018
-6.127e-04,-0.04,-0.08,-0.0046,-0.0082
-6.108e-04,-0.06,-0.02,-0.005,0.0018
-6.089e-04,-0.06,-0.08,-0.0038,-0.0082
-6.070e-04,-0.06,-0.02,-0.003,0.0018
-6.050e-04,-0.04,-0.08,-0.0022,-0.0098
-6.031e-04,-0.04,-0.02,-0.0046,0.0018
-6.012e-04,-0.06,-0.08,-0.0062,-0.0102
-5.993e-04,-0.06,-0.02,-0.0034,0.0022
-5.974e-04,-0.06,-0.08,-0.0038,-0.0086
-5.954e-04,-0.04,-0.02,-0.005,0.0014
-5.935e-04,-0.06,-0.08,-0.0046,-0.009
-5.916e-04,-0.04,-0.02,-0.003,0.0014
-5.897e-04,-0.06,-0.08,-0.0038,-0.0082
-5.878e-04,-0.06,-0.02,-0.0034,0.0014
-5.858e-04,-0.02,-0.08,-0.0022,-0.009
-5.839e-04,-0.06,-0.02,-0.003,0.0026
-5.820e-04,-0.04,-0.08,-0.0038,-0.0082
-5.801e-04,-0.06,-0.02,-0.0054,0.0022
-5.782e-04,-0.04,-0.08,-0.0018,-0.0082
-5.762e-04,-0.04,-0.02,-0.0042,0.0018
-5.743e-04,-0.04,-0.08,-0.0038,-0.009
-5.724e-04,-0.06,-0.02,-0.0034,0.001
-5.705e-04,-0.04,-0.08,-0.0046,-0.0086
-5.686e-04,-0.06,-0.02,-0.0054,0.0026
-5.666e-04,-0.04,-0.08,0.001,-0.0086
-5.647e-04,-0.04,-0.02,-0.0038,0.0022
-5.628e-04,-0.04,-0.08,-0.0038,-0.0082
-5.609e-04,-0.04,-0.02,-0.0022,0.0018
-5.590e-04,-0.04,-0.08,-0.0058,-0.0082
-5.570e-04,-0.04,-0.02,-0.005,0.0022
-5.551e-04,-0.04,-0.08,-0.0042,-0.0098
-5.532e-04,-0.04,-0.02,-0.005,0.001
-5.513e-04,-0.04,-0.08,-0.0026,-0.0102
-5.494e-04,-0.04,-0.02,-0.0026,0.0018
-5.474e-04,-0.06,-0.08,-0.0074,-0.009
-5.455e-04,-0.06,-0.02,-0.0034,0.0018
-5.436e-04,-0.04,-0.08,-0.0034,-0.009
-5.417e-04,-0.06,-0.02,-0.0022,0.0022
-5.398e-04,-0.06,-0.08,-0.001,-0.0078
-5.378e-04,-0.04,-0.02,-0.0042,0.0018
-5.359e-04,-0.04,-0.08,-0.0046,-0.009
-5.340e-04,-0.04,-0.02,-0.0034,0.0014
-5.321e-04,-0.04,-0.08,-0.005,-0.0086
-5.302e-04,-0.06,-0.02,-0.0038,0.001
-5.282e-04,-0.06,-0.08,-0.0082,-0.0086
-5.263e-04,-0.04,-0.02,-0.0054,0.0014
-5.244e-04,-0.04,-0.08,-0.005,-0.0082
-5.225e-04,-0.04,-0.02,-0.003,0.0022
-5.206e-04,-0.04,-0.08,-0.0038,-0.0094
-5.186e-04,-0.04,-0.02,-0.0058,0.0018
-5.167e-04,-0.04,-0.08,-0.0018,-0.0082
-5.148e-04,-0.04,-0.02,-0.0026,0.0014
-5.129e-04,-0.06,-0.08,-0.0038,-0.0078
-5.110e-04,-0.06,-0.02,-0.0042,0.001
-5.090e-04,-0.06,-0.08,-0.0034,-0.0078
-5.071e-04,-0.04,-0.02,-0.0026,0.0026
-5.052e-04,-0.06,-0.08,-0.0042,-0.0086
-5.033e-04,-0.04,-0.02,-0.0026,0.0018
-5.014e-04,-0.04,-0.08,-0.0046,-0.0086
-4.994e-04,-0.06,-0.02,0.0006,0.001
-4.975e-04,-0.04,-0.08,-0.0026,-0.0082
-4.956e-04,-0.04,-0.02,-0.003,0.0022
-4.937e-04,-0.04,-0.08,-0.0042,-0.0098
-4.918e-04,-0.04,-0.02,-0.0054,0.0018
-4.898e-04,-0.04,-0.08,-0.0002,-0.0086
-4.879e-04,-0.06,-0.02,-0.0022,0.0026
-4.860e-04,-0.04,-0.08,-0.003,-0.0082
-4.841e-04,-0.04,-0.02,-0.0034,0.0026
-4.822e-04,-0.06,-0.08,-0.003,-0.0094
-4.802e-04,-0.06,-0.02,-0.005,0.0022
-4.783e-04,-0.02,-0.08,-0.005,-0.0078
-4.764e-04,-0.02,-0.02,-0.0026,0.0022
-4.745e-04,-0.04,-0.08,-0.003,-0.0082
-4.725e-04,-0.04,-0.02,-0.0014,0.0022
-4.706e-04,-0.04,-0.08,-0.0026,-0.0082
-4.687e-04,-0.04,-0.02,-0.0062,0.003
-4.668e-04,-0.06,-0.08,-0.0038,-0.009
-4.649e-04,-0.02,-0.02,-0.003,0.0026
-4.629e-04,-0.06,-0.08,-0.0058,-0.0078
-4.610e-04,-0.06,-0.02,-0.0022,0.0022
-4.591e-04,-0.04,-0.08,-0.001,-0.0078
-4.572e-04,-0.06,-0.02,-0.0006,0.003
-4.553e-04,-0.04,-0.08,0.0002,-0.0094
-4.533e-04,-0.04,-0.02,-0.003,0.0022
-4.514e-04,-0.04,-0.08,-0.0026,-0.0086
-4.495e-04,-0.04,-0.02,-0.0026,0.0018
-4.476e-04,-0.06,-0.08,-0.0038,-0.0082
-4.457e-04,-0.04,-0.02,-0.007,0.0026
-4.437e-04,-0.04,-0.08,-0.0046,-0.0082
-4.418e-04,-0.04,-0.02,-0.0022,0.0022
-4.399e-04,-0.04,-0.06,-0.0026,-0.0082
-4.380e-04,-0.04,-0.02,-0.0042,0.0022
-4.361e-04,-0.02,-0.06,-0.003,-0.007
-4.341e-04,-0.04,0,-0.0038,0.0026
-4.322e-04,-0.04,-0.08,-0.003,-0.0082
-4.303e-04,-0.04,-0.02,-0.007,0.0034
-4.284e-04,-0.04,-0.06,-0.0058,-0.0094
-4.265e-04,-0.04,-0.02,-0.0078,0.0022
-4.245e-04,-0.02,-0.06,-0.005,-0.0094
-4.226e-04,-0.04,-0.02,-0.0046,0.0014
-4.207e-04,-0.04,-0.06,-0.0038,-0.009
-4.188e-04,-0.04,0,-0.0018,0.003
-4.169e-04,-0.04,-0.06,-0.0022,-0.0086
-4.149e-04,-0.04,-0.02,-0.001,0.0022
-4.130e-04,-0.02,-0.06,-0.005,-0.0074
-4.111e-04,-0.04,-0.02,0.0002,0.0022
-4.092e-04,-0.04,-0.06,-0.003,-0.0082
-4.073e-04,-0.04,-0.02,-0.0042,0.0014
-4.053e-04,-0.04,-0.08,-0.0034,-0.0078
-4.034e-04,-0.04,-0.02,-0.0042,0.0026
-4.015e-04,-0.04,-0.06,-0.0018,-0.007
-3.996e-04,-0.02,0,-0.0026,0.0018
-3.977e-04,-0.02,-0.06,-0.0042,-0.0082
-3.957e-04,-0.04,-0.02,-0.0038,0.0018
-3.938e-04,-0.04,-0.06,-0.0042,-0.007
-3.919e-04,-0.02,-0.02,-0.0034,0.0026
-3.900e-04,-0.04,-0.08,-0.0022,-0.0078
-3.881e-04,-0.04,-0.02,-0.0046,0.0022
-3.861e-04,-0.06,-0.08,-0.0042,-0.0082
-3.842e-04,-0.04,-0.02,-0.005,0.0022
-3.823e-04,-0.04,-0.08,-0.0046,-0.0082
-3.804e-04,-0.04,-0.02,-0.003,0.0034
-3.785e-04,-0.04,-0.06,-0.0026,-0.009
-3.765e-04,-0.04,0,-0.0018,0.003
-3.746e-04,-0.04,-0.06,-0.001,-0.0086
-3.727e-04,-0.04,-0.02,-0.0022,0.0018
-3.708e-04,-0.04,-0.06,-0.0046,-0.0082
-3.689e-04,-0.04,0,-0.0046,0.0018
-3.669e-04,-0.04,-0.06,-0.0026,-0.0074
-3.650e-04,-0.04,-0.02,-0.001,0.003
-3.631e-04,-0.04,-0.06,-0.0034,-0.0078
-3.612e-04,-0.02,-0.02,-0.0026,0.0022
-3.593e-04,-0.04,-0.06,-0.0046,-0.0074
-3.573e-04,-0.02,0,-0.0042,0.003
-3.554e-04,-0.02,-0.06,-0.003,-0.0078
-3.535e-04,-0.04,-0.02,0.0006,0.003
-3.516e-04,-0.04,-0.06,-0.0026,-0.0078
-3.497e-04,-0.04,-0.02,-0.0034,0.0034
-3.477e-04,-0.04,-0.06,-0.0046,-0.0082
-3.458e-04,-0.04,0,-0.0046,0.0018
-3.439e-04,-0.02,-0.06,-0.0042,-0.0078
-3.420e-04,-0.02,0,-0.0026,0.0018
-3.401e-04,-0.02,-0.06,-0.0038,-0.0074
-3.381e-04,-0.02,0,-0.0042,0.0038
-3.362e-04,-0.04,-0.06,-0.0026,-0.0078
-3.343e-04,-0.02,0,-0.0038,0.003
-3.324e-04,-0.02,-0.06,-0.0034,-0.0082
-3.305e-04,-0.02,0,-0.0014,0.0022
-3.285e-04,-0.04,-0.06,-0.0034,-0.0074
-3.266e-04,-0.04,0,-0.0014,0.0026
-3.247e-04,-0.04,-0.06,-0.003,-0.0094
-3.228e-04,-0.04,0,-0.0038,0.003
-3.209e-04,-0.04,-0.06,-0.0042,-0.0078
-3.189e-04,-0.04,-0.02,-0.0022,0.0022
-3.170e-04,-0.04,-0.06,-0.0018,-0.0082
-3.151e-04,-0.02,0,-0.0014,0.0038
-3.132e-04,-0.02,-0.06,-0.003,-0.0074
-3.113e-04,-0.02,-0.02,-0.001,0.0022
-3.093e-04,-0.02,-0.06,-0.0014,-0.0074
-3.074e-04,-0.04,0,-0.0014,0.003
-3.055e-04,-0.02,-0.06,-0.0006,-0.0074
-3.036e-04,-0.02,0,-0.0002,0.0034
-3.017e-04,-0.02,-0.06,-0.0034,-0.0074
-2.997e-04,-0.02,0,-0.0014,0.0038
-2.978e-04,-0.02,-0.06,-0.0018,-0.007
-2.959e-04,-0.04,0,0.0006,0.0026
-2.940e-04,-0.04,-0.06,-0.0006,-0.0066
-2.921e-04,-0.02,0,-0.0022,0.0034
-2.901e-04,-0.02,-0.06,-0.0022,-0.0082
-2.882e-04,-0.02,0,-0.0022,0.003
-2.863e-04,-0.02,-0.06,-0.0014,-0.0074
-2.844e-04,-0.02,0,-0.0006,0.0046
-2.825e-04,-0.02,-0.06,-0.0014,-0.0062
-2.805e-04,-0.02,0,-0.0038,0.003
-2.786e-04,-0.02,-0.06,-0.005,-0.0074
-2.767e-04,-0.02,-0.02,-0.0014,0.0038
-2.748e-04,-0.02,-0.06,-0.0022,-0.0074
-2.729e-04,-0.02,0,-0.0002,0.0042
-2.709e-04,-0.02,-0.06,-0.0022,-0.0058
-2.690e-04,-0.02,0,0.001,0.0046
-2.671e-04,-0.04,-0.06,-0.0034,-0.0062
-2.652e-04,-0.02,-0.02,0.0002,0.0038
-2.633e-04,-0.02,-0.06,-0.0018,-0.0062
-2.613e-04,-0.04,0,-0.0014,0.0038
-2.594e-04,-0.02,-0.06,-0.0042,-0.0066
-2.575e-04,-0.02,0,0.0006,0.0038
-2.556e-04,-0.02,-0.06,-0.0002,-0.0062
-2.537e-04,-0.02,0,-0.0034,0.0046
-2.517e-04,-0.04,-0.06,-0.0022,-0.0054
-2.498e-04,-0.02,0,-0.0026,0.0034
-2.479e-04,-0.04,-0.06,-0.0006,-0.0062
-2.460e-04,-0.04,0,-0.0014,0.0042
-2.441e-04,-0.02,-0.06,-0.0026,-0.0066
-2.421e-04,-0.04,0,-0.0034,0.0046
-2.402e-04,-0.02,-0.06,-0.0006,-0.0058
-2.383e-04,-0.02,0,-0.0026,0.0046
-2.364e-04,-0.04,-0.06,-0.001,-0.0058
-2.345e-04,-0.04,0,-0.0034,0.0042
-2.325e-04,-0.04,-0.06,-0.0022,-0.0046
-2.306e-04,-0.02,0,0.001,0.0042
-2.287e-04,-0.02,-0.06,-0.003,-0.0054
-2.268e-04,-0.02,0,-0.0006,0.0042
-2.249e-04,-0.02,-0.06,-0.0018,-0.0058
-2.229e-04,-0.02,0,0.003,0.0042
-2.210e-04,-0.02,-0.06,-0.0026,-0.0074
-2.191e-04,-0.02,0,-0.0014,0.0058
-2.172e-04,-0.02,-0.06,-0.0014,-0.0062
-2.153e-04,-0.02,0,0.0022,0.0042
-2.133e-04,-0.02,-0.06,0.0018,-0.0054
-2.114e-04,-0.02,0,0.001,0.005
-2.095e-04,-0.02,-0.06,-0.003,-0.0054
-2.076e-04,-0.02,0,-0.0022,0.0038
-2.057e-04,-0.02,-0.06,0.0014,-0.0062
-2.037e-04,-0.02,0,-0.0014,0.0046
-2.018e-04,-0.04,-0.06,-0.001,-0.005
-1.999e-04,-0.02,0,0.0026,0.0054
-1.980e-04,-0.02,-0.06,-0.0018,-0.0074
-1.961e-04,-0.02,0,0.0006,0.0042
-1.941e-04,-0.02,-0.06,0.0022,-0.0058
-1.922e-04,-0.04,0,-0.0014,0.005
-1.903e-04,-0.02,-0.06,-0.0006,-0.0054
-1.884e-04,-0.02,0,-0.0018,0.005
-1.865e-04,-0.02,-0.06,0.0002,-0.0046
-1.845e-04,-0.02,0,-0.0014,0.005
-1.826e-04,-0.02,-0.06,-0.001,-0.0054
-1.807e-04,-0.02,0,-0.0022,0.0042
-1.788e-04,-0.02,-0.06,-0.0022,-0.0058
-1.769e-04,-0.02,0,0.0022,0.0062
-1.749e-04,-0.02,-0.06,-0.001,-0.0058
-1.730e-04,-0.02,0,-0.0002,0.0046
-1.711e-04,-0.02,-0.06,-0.0018,-0.0062
-1.692e-04,-0.02,0,-0.0018,0.0046
-1.673e-04,-0.02,-0.06,0.001,-0.0058
-1.653e-04,-0.02,0,0.0014,0.0046
-1.634e-04,-0.02,-0.06,-0.0006,-0.0062
-1.615e-04,-0.02,0,-0.0014,0.005
-1.596e-04,-0.02,-0.06,-0.003,-0.0062
-1.576e-04,0,0,-0.0006,0.0038
-1.557e-04,-0.02,-0.06,-0.001,-0.0058
-1.538e-04,-0.02,0,0.0006,0.0038
-1.519e-04,-0.02,-0.06,-0.0002,-0.0058
-1.500e-04,-0.02,0,-0.0006,0.0054
-1.480e-04,-0.04,-0.06,-0.0026,-0.0066
-1.461e-04,-0.02,0,0.0026,0.0042
-1.442e-04,-0.02,-0.06,-0.0018,-0.0066
-1.423e-04,-0.02,0,-0.0022,0.0046
-1.404e-04,-0.02,-0.06,-0.0014,-0.0074
-1.384e-04,-0.02,0,-0.0034,0.0038
-1.365e-04,-0.02,-0.04,-0.0042,-0.0054
-1.346e-04,-0.02,0.02,-0.0026,0.0038
-1.327e-04,-0.02,-0.06,-0.0018,-0.0066
-1.308e-04,-0.02,0,0.0002,0.0034
-1.288e-04,-0.02,-0.06,0.0022,-0.0066
-1.269e-04,-0.02,0,-0.0002,0.0038
-1.250e-04,-0.02,-0.06,0.0014,-0.0074
-1.231e-04,0,0,-0.003,0.0034
-1.212e-04,-0.02,-0.04,-0.0014,-0.0074
-1.192e-04,0,0,-0.0014,0.0038
-1.173e-04,-0.02,-0.06,-0.0018,-0.0066
-1.154e-04,0,0,-0.0018,0.0034
-1.135e-04,-0.02,-0.04,-0.0022,-0.0074
-1.116e-04,-0.02,0.02,-0.0002,0.0038
-1.096e-04,-0.02,-0.06,-0.0014,-0.0074
-1.077e-04,0,0,-0.001,0.0042
-1.058e-04,-0.02,-0.06,-0.001,-0.0086
-1.039e-04,-0.02,0,-0.003,0.003
-1.020e-04,-0.02,-0.04,-0.0022,-0.007
-1.000e-04,-0.02,0.02,-0.0026,0.0042
-9.813e-05,-0.02,-0.06,-0.001,-0.0066
-9.621e-05,-0.02,0.02,-0.0018,0.003
-9.429e-05,-0.02,-0.04,0.0002,-0.009
-9.237e-05,-0.02,0.02,-0.003,0.0034
-9.045e-05,-0.02,-0.04,-0.0022,-0.0078
-8.853e-05,-0.02,0.02,-0.0022,0.0038
-8.661e-05,0,-0.04,-0.0038,-0.0078
-8.469e-05,0,0.02,-0.0026,0.003
-8.276e-05,0,-0.04,-0.0038,-0.0074
-8.084e-05,0,0,-0.0034,0.0038
-7.892e-05,-0.02,-0.06,-0.0006,-0.0074
-7.700e-05,-0.02,0,0.001,0.003
-7.508e-05,-0.02,-0.06,-0.001,-0.007
-7.316e-05,-0.02,0,-0.0006,0.0026
-7.124e-05,-0.02,-0.04,-0.0046,-0.0074
-6.932e-05,-0.02,0,-0.0018,0.0022
-6.740e-05,-0.02,-0.04,-0.0022,-0.0082
-6.548e-05,-0.02,0,-0.0038,0.003
-6.356e-05,-0.02,-0.06,0.0002,-0.007
-6.164e-05,-0.02,0,-0.003,0.003
-5.972e-05,-0.02,-0.04,-0.0006,-0.0074
-5.780e-05,-0.02,0.02,-0.0034,0.0034
-5.588e-05,-0.02,-0.04,-0.0046,-0.0074
-5.396e-05,-0.02,0.02,-0.0046,0.0034
-5.204e-05,-0.02,-0.04,-0.0018,-0.0074
-5.012e-05,-0.02,0.02,-0.0006,0.0034
-4.820e-05,0,-0.04,-0.0022,-0.0066
-4.628e-05,-0.02,0,-0.001,0.0026
-4.436e-05,-0.02,-0.04,-0.0006,-0.0058
-4.244e-05,-0.02,0.02,0.0014,0.003
-4.052e-05,-0.02,-0.04,-0.0042,-0.0066
-3.860e-05,-0.02,0.02,-0.0014,0.0042
-3.668e-05,0,-0.04,-0.0018,-0.0078
-3.476e-05,-0.02,0.02,-0.0018,0.003
-3.284e-05,-0.02,-0.04,0.001,-0.009
-3.092e-05,-0.02,0.02,-0.003,0.003
-2.900e-05,-0.02,-0.04,-0.0026,-0.0074
-2.708e-05,-0.02,0,-0.0034,0.0038
-2.516e-05,0,-0.04,-0.003,-0.0062
-2.324e-05,-0.02,0.02,-0.0018,0.003
-2.132e-05,0,-0.04,-0.003,-0.0062
-1.940e-05,-0.02,0.02,-0.001,0.0038
-1.748e-05,0,-0.04,-0.0026,-0.007
-1.556e-05,0,0.02,-0.0046,0.003
-1.364e-05,-0.02,-0.04,-0.0038,-0.007
-1.172e-05,-0.02,0.02,-0.0026,0.0022
-9.800e-06,-0.02,-0.04,-0.0038,-0.0074
-7.880e-06,0,0.02,-0.0022,0.0034
-5.960e-06,-0.02,-0.04,-0.0006,-0.009
-4.040e-06,0,0.02,-0.001,0.003
-2.120e-06,0,-0.04,-0.0034,-0.0066
-1.997e-07,-0.02,0.04,-0.0022,0.0038
1.720e-06,-0.02,-0.04,-0.0042,-0.007
3.641e-06,-0.02,0.02,-0.001,0.0034
5.561e-06,0,-0.04,-0.0022,-0.0074
7.481e-06,0,0.02,0.001,0.003
9.401e-06,0,-0.04,-0.0006,-0.0086
1.132e-05,0,0.02,-0.0046,0.0026
1.324e-05,-0.02,-0.04,-0.0002,-0.0066
1.516e-05,0,0.02,0.001,0.003
1.708e-05,-0.02,-0.04,0.0006,-0.0058
1.900e-05,0,0.02,-0.0018,0.0034
2.092e-05,-0.02,-0.04,-0.0026,-0.0066
2.284e-05,-0.02,0.02,0.0002,0.0054
2.476e-05,-0.02,-0.04,0.001,-0.0062
2.668e-05,-0.02,0.02,-0.0034,0.0038
2.860e-05,0,-0.04,-0.0018,-0.0066
3.052e-05,0,0.02,0.001,0.0046
3.244e-05,0,-0.04,-0.0006,-0.0074
3.436e-05,0,0.02,0.0002,0.0034
3.628e-05,-0.02,-0.04,-0.001,-0.0058
3.820e-05,-0.02,0.02,-0.0042,0.005
4.012e-05,-0.02,-0.04,-0.001,-0.0066
4.204e-05,0,0.02,-0.0002,0.0038
4.396e-05,0,-0.04,-0.0034,-0.0062
4.588e-05,0,0.02,-0.0026,0.005
4.780e-05,-0.02,-0.04,-0.0006,-0.0078
4.972e-05,-0.02,0.02,-0.001,0.0038
5.164e-05,0,-0.04,-0.0018,-0.0074
5.356e-05,0,0.02,-0.0026,0.005
5.548e-05,0,-0.04,-0.0018,-0.007
5.740e-05,-0.02,0.02,-0.001,0.0042
5.932e-05,0,-0.04,-0.0022,-0.0058
6.124e-05,0,0.02,-0.0002,0.0038
6.316e-05,0,-0.04,0.0014,-0.0058
6.508e-05,0,0.02,-0.0034,0.0046
6.700e-05,0,-0.04,-0.003,-0.0062
6.892e-05,0,0.02,-0.0002,0.0046
7.084e-05,0.02,-0.04,-0.0014,-0.0066
7.276e-05,-0.02,0.02,-0.0002,0.0042
7.469e-05,0,-0.06,-0.0002,-0.0062
7.661e-05,-0.02,0.02,-0.0026,0.0042
7.853e-05,-0.02,-0.04,0.0026,-0.007
8.045e-05,-0.02,0.02,-0.0026,0.0042
8.237e-05,0,-0.04,-0.0022,-0.005
8.429e-05,0,0.02,-0.0006,0.0046
8.621e-05,0,-0.04,-0.0018,-0.0054
8.813e-05,0,0.02,0.0002,0.0042
9.005e-05,0,-0.04,-0.0006,-0.0058
9.197e-05,0,0.02,-0.0034,0.0046
9.389e-05,0,-0.04,0.0006,-0.0046
9.581e-05,0,0.02,0.001,0.0054
9.773e-05,0,-0.04,-0.0006,-0.0058
9.965e-05,0,0.02,-0.0014,0.0054
1.016e-04,0,-0.04,-0.0006,-0.0058
1.035e-04,-0.02,0.02,-0.0014,0.0038
1.054e-04,0,-0.04,-0.001,-0.0054
1.073e-04,0,0.02,0.0006,0.0054
1.092e-04,-0.02,-0.04,-0.0006,-0.0054
1.112e-04,0,0.02,0.001,0.005
1.131e-04,0.02,-0.04,0.0018,-0.0054
1.150e-04,0,0.02,-0.0018,0.0054
1.169e-04,0,-0.04,-0.0006,-0.0046
1.188e-04,0,0.02,-0.0022,0.0054
1.208e-04,0,-0.04,0.0014,-0.0058
1.227e-04,0,0.02,-0.0006,0.0062
1.246e-04,-0.02,-0.02,0.0002,-0.0046
1.265e-04,0,0.02,-0.0002,0.0062
1.284e-04,0,-0.04,-0.001,-0.0046
1.304e-04,-0.02,0.02,0.001,0.0062
1.323e-04,0,-0.04,0.0022,-0.005
1.342e-04,0,0.02,0.003,0.0062
1.361e-04,0.02,-0.02,0.0006,-0.0038
1.380e-04,0,0.02,-0.0002,0.0062
1.400e-04,0,-0.04,-0.0006,-0.0034
1.419e-04,-0.02,0.02,0.0014,0.0062
1.438e-04,0,-0.04,0.001,-0.0034
1.457e-04,0,0.02,0.0014,0.0062
1.476e-04,0,-0.02,0.0014,-0.0058
1.496e-04,0,0.02,0.0014,0.007
1.515e-04,0.02,-0.04,0.0054,-0.003
1.534e-04,0,0.02,0.003,0.0074
1.553e-04,-0.02,-0.04,0.0018,-0.0046
1.573e-04,-0.02,0.02,0.003,0.0086
1.592e-04,0,-0.04,0.001,-0.003
1.611e-04,0,0.02,0.0002,0.0078
1.630e-04,0,-0.02,0.0026,-0.0042
1.649e-04,0,0.02,0.0022,0.0082
1.669e-04,0,-0.04,0.0022,-0.0034
1.688e-04,0,0.02,0.0006,0.0074
1.707e-04,0,-0.04,0.0034,-0.0034
1.726e-04,0,0.02,0.0038,0.009
1.745e-04,0,-0.04,0.001,-0.0014
1.765e-04,-0.02,0.02,0.005,0.0098
1.784e-04,0,-0.02,0.005,-0.0026
1.803e-04,0,0.02,0.0026,0.0078
1.822e-04,0,-0.04,0.0038,-0.0014
1.841e-04,0,0.02,0.0038,0.0082
1.861e-04,-0.02,-0.04,0.0026,-0.0014
1.880e-04,0,0.02,0.0018,0.0082
1.899e-04,0,-0.04,0.003,-0.0018
1.918e-04,0.02,0.02,0.0034,0.0082
1.937e-04,0,-0.04,0.0046,-0.0022
1.957e-04,0,0.04,0.0042,0.0098
1.976e-04,0,-0.04,0.0042,-0.0006
1.995e-04,0.02,0.02,0.0054,0.0094
2.014e-04,0,-0.04,0.0062,-0.0022
2.033e-04,0,0.02,0.003,0.0098
2.053e-04,0.02,-0.04,0.007,0.0006
2.072e-04,0,0.02,0.0034,0.0102
2.091e-04,0,-0.02,0.0058,-0.0002
2.110e-04,0,0.02,0.0066,0.0106
2.129e-04,0,-0.02,0.0058,0.0014
2.149e-04,0,0.04,0.0066,0.011
2.168e-04,0,-0.04,0.0102,0.0002
2.187e-04,0,0.02,0.005,0.0118
2.206e-04,0,-0.02,0.0078,0.0006
2.225e-04,0,0.02,0.0066,0.0118
2.245e-04,0.02,-0.02,0.0054,0.0022
2.264e-04,0,0.02,0.0086,0.0126
2.283e-04,0,-0.04,0.0058,0.0018
2.302e-04,0,0.04,0.0054,0.0122
2.321e-04,0.02,-0.04,0.005,0.003
2.341e-04,0,0.02,0.0086,0.0122
2.360e-04,0,-0.04,0.009,0.003
2.379e-04,0,0.02,0.0082,0.0138
2.398e-04,0.02,-0.02,0.0074,0.0026
2.417e-04,0,0.04,0.0094,0.0134
2.437e-04,0,-0.04,0.0062,0.0042
2.456e-04,0.02,0.04,0.0126,0.0146
2.475e-04,0,-0.02,0.0078,0.0046
2.494e-04,0,0.04,0.009,0.0146
2.513e-04,0.02,-0.02,0.0122,0.0058
2.533e-04,0,0.04,0.0094,0.0162
2.552e-04,0.02,-0.02,0.0094,0.0054
2.571e-04,0.02,0.02,0.0126,0.0178
2.590e-04,-0.02,-0.02,0.0122,0.0054
2.609e-04,0.02,0.04,0.0146,0.017
2.629e-04,0,-0.02,0.0106,0.0058
2.648e-04,0,0.04,0.0114,0.0186
2.667e-04,0.02,-0.02,0.0122,0.0082
2.686e-04,0.02,0.04,0.0122,0.0194
2.705e-04,0,-0.02,0.0118,0.0086
2.725e-04,0,0.02,0.0142,0.0194
2.744e-04,0,-0.02,0.0158,0.009
2.763e-04,0,0.02,0.0154,0.0198
2.782e-04,0,-0.02,0.015,0.0094
2.801e-04,0.02,0.04,0.0106,0.0214
2.821e-04,0,-0.02,0.0166,0.0106
2.840e-04,-0.02,0.04,0.0158,0.023
2.859e-04,0.02,-0.02,0.0174,0.0122
2.878e-04,0.02,0.04,0.0194,0.0234
2.897e-04,0,-0.02,0.0162,0.0114
2.917e-04,0.02,0.02,0.017,0.0226
2.936e-04,0.02,-0.02,0.0206,0.0122
2.955e-04,0,0.04,0.0174,0.0234
2.974e-04,0,-0.02,0.0194,0.0146
2.993e-04,0.02,0.04,0.0178,0.0254
3.013e-04,0.02,-0.02,0.0222,0.0154
3.032e-04,0.02,0.04,0.0178,0.0258
3.051e-04,0,-0.02,0.0198,0.0158
3.070e-04,0.02,0.02,0.0226,0.0262
3.089e-04,0.02,-0.02,0.0194,0.0158
3.109e-04,0,0.02,0.0218,0.0266
3.128e-04,0,-0.02,0.0214,0.0154
3.147e-04,0.02,0.04,0.0226,0.027
3.166e-04,0.02,-0.02,0.0202,0.0166
3.185e-04,0.02,0.04,0.019,0.027
3.205e-04,0.02,-0.02,0.0234,0.0162
3.224e-04,0.02,0.04,0.0242,0.0266
3.243e-04,0.02,-0.02,0.0238,0.017
3.262e-04,0.02,0.04,0.0234,0.027
3.281e-04,0.02,-0.02,0.0238,0.0182
3.301e-04,0.02,0.04,0.0254,0.0282
3.320e-04,0,-0.02,0.023,0.0154
3.339e-04,0,0.04,0.025,0.0286
3.358e-04,0.02,-0.02,0.0226,0.017
3.377e-04,0.02,0.04,0.0242,0.0286
3.397e-04,0.02,-0.02,0.0214,0.0178
3.416e-04,0.02,0.04,0.021,0.0278
3.435e-04,0,-0.02,0.023,0.0162
3.454e-04,0.02,0.04,0.0214,0.027
3.473e-04,0,-0.02,0.0198,0.0166
3.493e-04,0.02,0.04,0.019,0.0278
3.512e-04,0,-0.02,0.0206,0.0174
3.531e-04,0.02,0.04,0.0214,0.0262
3.550e-04,0.02,-0.02,0.0218,0.0154
3.569e-04,0,0.04,0.0218,0.0258
3.589e-04,0.02,-0.02,0.0186,0.0146
3.608e-04,0,0.04,0.0198,0.0258
3.627e-04,0.04,-0.02,0.0178,0.015
3.646e-04,0,0.04,0.0154,0.0246
3.665e-04,0.02,-0.02,0.0198,0.0142
3.685e-04,0.02,0.04,0.0166,0.0258
3.704e-04,0,-0.02,0.0198,0.0126
3.723e-04,0,0.04,0.0182,0.023
3.742e-04,0,-0.02,0.0178,0.0114
3.761e-04,0.02,0.04,0.017,0.023
3.781e-04,0,-0.02,0.0182,0.0122
3.800e-04,0.02,0.04,0.0166,0.0214
3.819e-04,0,-0.02,0.0146,0.0098
3.838e-04,0,0.04,0.0198,0.023
3.857e-04,0,-0.02,0.019,0.009
3.877e-04,0.02,0.04,0.0154,0.0202
3.896e-04,0.02,-0.02,0.015,0.009
3.915e-04,0.02,0.04,0.0122,0.019
3.934e-04,0.02,-0.02,0.0138,0.0086
3.953e-04,0,0.04,0.0126,0.0198
3.973e-04,0.02,-0.02,0.0114,0.0078
3.992e-04,0.02,0.04,0.0106,0.0186
4.011e-04,0.02,-0.02,0.0118,0.0058
4.030e-04,0,0.04,0.0114,0.0178
4.049e-04,0.02,-0.02,0.015,0.0058
4.069e-04,0.02,0.04,0.013,0.0166
4.088e-04,0.02,-0.02,0.011,0.0062
4.107e-04,0.02,0.04,0.0086,0.017
4.126e-04,0.04,-0.02,0.0106,0.0054
4.145e-04,0.02,0.04,0.0146,0.0158
4.165e-04,0.02,-0.02,0.009,0.003
4.184e-04,0.02,0.04,0.0054,0.0146
4.203e-04,0.02,-0.02,0.0106,0.0042
4.222e-04,0.02,0.04,0.009,0.0142
4.241e-04,0.02,-0.02,0.0086,0.0042
4.261e-04,0.02,0.04,0.0122,0.013
4.280e-04,0.02,-0.02,0.0094,0.0038
4.299e-04,0.02,0.04,0.007,0.015
4.318e-04,0.02,-0.02,0.0082,0.0022
4.337e-04,0.02,0.04,0.0102,0.015
4.357e-04,0.02,-0.02,0.0098,0.003
4.376e-04,0.02,0.04,0.0082,0.0122
4.395e-04,0.02,-0.02,0.0086,0.0022
4.414e-04,0.02,0.04,0.0058,0.013
4.433e-04,0.02,-0.02,0.0066,0.0022
4.453e-04,0.02,0.04,0.0034,0.011
4.472e-04,0.02,-0.02,0.0062,0.0018
4.491e-04,0,0.04,0.0046,0.0118
4.510e-04,0,-0.02,0.0038,-0.0002
4.529e-04,0.02,0.04,0.0046,0.0126
4.549e-04,0,-0.02,0.0038,0.0006
4.568e-04,0.02,0.04,0.007,0.0106
4.587e-04,0.02,-0.02,0.0058,-0.0002
4.606e-04,0.02,0.04,0.0054,0.0098
4.625e-04,0.02,0,0.0062,-0.0006
4.645e-04,0.02,0.04,0.0038,0.0098
4.664e-04,0,-0.02,0.007,-0.003
4.683e-04,0.02,0.04,0.0038,0.0106
4.702e-04,0.04,0,0.0042,-0.0006
4.722e-04,0.02,0.04,0.0046,0.0106
4.741e-04,0.02,-0.02,0.007,-0.0014
4.760e-04,0.02,0.04,0.0058,0.0098
4.779e-04,0.02,-0.02,0.005,-0.0014
4.798e-04,0.02,0.04,0.001,0.0086
4.818e-04,0.02,0,0.0046,-0.0006
4.837e-04,0.02,0.04,0.001,0.0094
4.856e-04,0.02,0,0.0066,-0.0014
4.875e-04,0.02,0.04,0.0026,0.0086
4.894e-04,0.02,-0.02,0.0034,-0.0018
4.914e-04,0.02,0.04,0.0042,0.0086
4.933e-04,0.02,-0.02,0.0034,-0.0018
4.952e-04,0.02,0.04,0.0022,0.009
4.971e-04,0.02,0,0.0034,-0.0014
4.990e-04,0.02,0.04,0.0038,0.009
5.010e-04,0.04,0,0.003,-0.0034
5.029e-04,0.02,0.04,0.0034,0.0082
5.048e-04,0.02,0,0.005,-0.003
5.067e-04,0.02,0.04,0.0026,0.0078
5.086e-04,0.02,0,0.0026,-0.003
5.106e-04,0.02,0.04,0.0014,0.0078
5.125e-04,0.02,0,0.0066,-0.0018
5.144e-04,0.04,0.04,0.0026,0.0074
5.163e-04,0.02,-0.02,0.0018,-0.003
5.182e-04,0.02,0.04,-0.0014,0.007
5.202e-04,0.02,-0.02,0.0046,-0.003
5.221e-04,0.04,0.06,0.0034,0.0074
5.240e-04,0.02,-0.02,0.0002,-0.003
5.259e-04,0.02,0.04,0.0018,0.0074
5.278e-04,0.02,-0.02,0.0038,-0.0042
5.298e-04,0.02,0.04,0.003,0.007
5.317e-04,0.02,-0.02,0.0046,-0.0034
5.336e-04,0.02,0.04,0.0038,0.0066
5.355e-04,0.04,0,0.0014,-0.0022
5.374e-04,0.02,0.04,0.0022,0.0074
5.394e-04,0.02,0,0.005,-0.0022
5.413e-04,0.02,0.04,0.0002,0.0078
5.432e-04,0.02,-0.02,0.0054,-0.0034
5.451e-04,0.02,0.04,0.0006,0.007
5.470e-04,0.02,0,0.0026,-0.0026
5.490e-04,0.04,0.04,-0.0014,0.007
5.509e-04,0.02,0,0.0022,-0.0038
5.528e-04,0.04,0.04,-0.0006,0.0066
5.547e-04,0.02,0,0.0014,-0.0034
5.566e-04,0.02,0.06,0.0022,0.007
5.586e-04,0.02,-0.02,-0.0006,-0.0034
5.605e-04,0.02,0.04,0.0014,0.007
5.624e-04,0.02,0,0.001,-0.0034
5.643e-04,0.02,0.04,-0.0006,0.0062
5.662e-04,0.02,0,0.0026,-0.0046
5.682e-04,0.02,0.04,0.0022,0.007
5.701e-04,0.02,-0.02,0.0014,-0.003
5.720e-04,0.02,0.04,0.0018,0.0082
5.739e-04,0.02,0,0.0026,-0.0042
5.758e-04,0.02,0.06,0.0014,0.0058
5.778e-04,0.04,0,0.0006,-0.0038
5.797e-04,0.02,0.04,0.0022,0.0058
5.816e-04,0.04,0,0.0034,-0.0046
5.835e-04,0.04,0.04,0.0002,0.0062
5.854e-04,0.02,0,0.0014,-0.0042
5.874e-04,0.02,0.06,0.0018,0.0074
5.893e-04,0.04,0,0.0006,-0.0038
5.912e-04,0.04,0.04,0.0038,0.0078
5.931e-04,0.04,0,-0.0018,-0.0038
5.950e-04,0.02,0.04,0.0034,0.0054
5.970e-04,0.02,0,0.0034,-0.0034
5.989e-04,0.02,0.04,0.0026,0.0066
6.008e-04,0.02,0,0.0014,-0.003
6.027e-04,0.04,0.06,0.0018,0.0058
6.046e-04,0.02,0,0.0014,-0.0042
6.066e-04,0.04,0.06,0.0002,0.0066
6.085e-04,0.02,0,0.0022,-0.0042
6.104e-04,0.02,0.04,0.0006,0.0066
6.123e-04,0.02,0,-0.0002,-0.003
6.142e-04,0.02,0.04,-0.001,0.0066
6.162e-04,0.02,-0.02,0.0034,-0.0034
6.181e-04,0.02,0.06,-0.0002,0.0074
6.200e-04,0.02,0,-0.0002,-0.0034
6.219e-04,0.04,0.06,0.001,0.0074
6.238e-04,0.04,0,-0.0018,-0.0034
6.258e-04,0.02,0.04,-0.0002,0.0062
6.277e-04,0.04,0,0.0006,-0.0042
6.296e-04,0.04,0.06,0.005,0.007
6.315e-04,0.02,0,0.0014,-0.0046
6.334e-04,0.04,0.06,0.0034,0.007
6.354e-04,0.04,0,0.0018,-0.0038
6.373e-04,0.02,0.06,0.0002,0.0066
6.392e-04,0.02,0,0.0018,-0.0034
6.411e-04,0.04,0.04,0.0026,0.0078
6.430e-04,0.02,0,0.0058,-0.0034
6.450e-04,0.04,0.04,0.0002,0.0062
6.469e-04,0.02,0,-0.001,-0.0034
6.488e-04,0.04,0.06,0.0022,0.007
6.507e-04,0.04,0,0.0014,-0.0034
6.526e-04,0.04,0.06,0.0034,0.0074
6.546e-04,0.04,0,0.0046,-0.0038
6.565e-04,0.02,0.06,0.0022,0.0062
6.584e-04,0.04,0,0.0014,-0.003
6.603e-04,0.02,0.06,0.0014,0.007
6.622e-04,0.04,0,0.0018,-0.003
6.642e-04,0.02,0.06,-0.001,0.0082
6.661e-04,0.04,0,0.0038,-0.003
6.680e-04,0.02,0.06,0.0038,0.0078
6.699e-04,0.04,0,0.0026,-0.0034
6.718e-04,0.04,0.06,0.0034,0.0082
6.738e-04,0.02,0,0.0034,-0.0034
6.757e-04,0.04,0.06,-0.0014,0.0082
6.776e-04,0.04,0,0.003,-0.0038
6.795e-04,0.02,0.06,0.001,0.0082
6.814e-04,0.04,0,0.001,-0.0022
6.834e-04,0.02,0.06,-0.0014,0.0082
6.853e-04,0.02,0,0.003,-0.003
6.872e-04,0.04,0.06,0.0006,0.0078
6.891e-04,0.04,0,0.0046,-0.0026
6.910e-04,0.04,0.06,0.003,0.0082
6.930e-04,0.02,0,0.0034,-0.0022
6.949e-04,0.04,0.06,0.0038,0.0082
6.968e-04,0.04,0,0.0034,-0.0034
6.987e-04,0.04,0.06,0.0014,0.0082
7.006e-04,0.04,0,0.0018,-0.0022
7.026e-04,0.04,0.06,0.0034,0.0078
7.045e-04,0.02,0,0.0034,-0.0018
7.064e-04,0.04,0.06,0.003,0.0074
7.083e-04,0.04,0,0.005,-0.0018
7.102e-04,0.04,0.06,0.0002,0.0086
7.122e-04,0.02,0,0.0006,-0.0014
7.141e-04,0.04,0.06,0.001,0.0078
7.160e-04,0.02,0,0.0022,-0.0014
7.179e-04,0.04,0.06,0.0022,0.0086
7.198e-04,0.04,0,0.0046,-0.0018
7.218e-04,0.04,0.06,0.0014,0.0094
7.237e-04,0.04,0,0.0066,-0.0006
7.256e-04,0.02,0.06,0.0034,0.011
7.275e-04,0.04,0,0.0062,-0.0014
7.294e-04,0.02,0.06,0.001,0.009
7.314e-04,0.04,0,0.0062,-0.001
7.333e-04,0.02,0.06,0.0022,0.011
7.352e-04,0.02,0,0.001,-0.001
7.371e-04,0.04,0.06,0.0058,0.0102
7.390e-04,0.04,0,0.005,-0.0006
7.410e-04,0.04,0.06,0.0078,0.0094
7.429e-04,0.04,0,0.0058,-0.001
7.448e-04,0.04,0.06,0.0054,0.0098
7.467e-04,0.04,0,0.005,-0.001
7.486e-04,0.04,0.06,0.007,0.0106
7.506e-04,0.02,0,0.0062,0.0006
7.525e-04,0.04,0.06,0.0066,0.0118
7.544e-04,0.04,0,0.0058,0.0002
7.563e-04,0.02,0.06,0.0058,0.011
7.582e-04,0.04,0,0.0062,0.0002
7.602e-04,0.02,0.06,0.0058,0.0106
7.621e-04,0.04,0,0.0058,0.001
7.640e-04,0.04,0.06,0.0066,0.0106
7.659e-04,0.02,0,0.0078,0.001
7.678e-04,0.02,0.06,0.0062,0.0126
7.698e-04,0.04,0,0.0074,0.0006
7.717e-04,0.06,0.06,0.0046,0.011
7.736e-04,0.02,0,0.0098,0.0018
7.755e-04,0.04,0.06,0.0066,0.0134
7.775e-04,0.04,0,0.0086,0.0034
7.794e-04,0.04,0.06,0.007,0.013
7.813e-04,0.04,0,0.009,0.003
7.832e-04,0.04,0.06,0.0122,0.0138
7.851e-04,0.04,0,0.011,0.0042
7.871e-04,0.04,0.06,0.0078,0.0142
7.890e-04,0.04,0.02,0.0066,0.0034
7.909e-04,0.04,0.06,0.0114,0.0138
7.928e-04,0.02,0,0.0138,0.0034
7.947e-04,0.04,0.06,0.0106,0.0146
7.967e-04,0.04,0,0.0098,0.0038
7.986e-04,0.04,0.06,0.011,0.0166
8.005e-04,0.04,0,0.0118,0.0054
8.024e-04,0.04,0.06,0.0106,0.0158
8.043e-04,0.04,0,0.0126,0.0058
8.063e-04,0.04,0.06,0.011,0.0158
8.082e-04,0.04,0,0.0118,0.0062
8.101e-04,0.04,0.06,0.0118,0.0174
8.120e-04,0.04,0,0.0094,0.007
8.139e-04,0.04,0.06,0.0162,0.0166
8.159e-04,0.04,0.02,0.0118,0.0086
8.178e-04,0.04,0.06,0.015,0.0182
8.197e-04,0.04,0,0.0114,0.0078
8.216e-04,0.04,0.06,0.0126,0.0178
8.235e-04,0.04,0,0.0122,0.0086
8.255e-04,0.04,0.06,0.0146,0.0198
8.274e-04,0.04,0.02,0.0158,0.0106
8.293e-04,0.04,0.06,0.015,0.021
8.312e-04,0.04,0,0.015,0.011
8.331e-04,0.04,0.06,0.015,0.0222
8.351e-04,0.02,0.02,0.0154,0.011
8.370e-04,0.02,0.06,0.0194,0.0218
8.389e-04,0.06,0,0.0154,0.0126
8.408e-04,0.04,0.06,0.0182,0.0222
8.427e-04,0.02,0,0.0182,0.0122
8.447e-04,0.04,0.06,0.0202,0.0242
8.466e-04,0.04,0,0.0214,0.0138
8.485e-04,0.04,0.06,0.0174,0.0242
8.504e-04,0.04,0.02,0.0214,0.0146
8.523e-04,0.04,0.06,0.0198,0.0246
8.543e-04,0.04,0.02,0.0194,0.0146
8.562e-04,0.04,0.06,0.0206,0.025
8.581e-04,0.04,0.02,0.0194,0.0162
8.600e-04,0.04,0.06,0.021,0.0266
8.619e-04,0.04,0.02,0.021,0.017
8.639e-04,0.06,0.06,0.0218,0.0278
8.658e-04,0.04,0.02,0.0222,0.017
8.677e-04,0.04,0.08,0.0218,0.0278
8.696e-04,0.04,0,0.023,0.017
8.715e-04,0.04,0.06,0.0226,0.027
8.735e-04,0.04,0.02,0.0254,0.0186
8.754e-04,0.04,0.06,0.0226,0.029
8.773e-04,0.04,0.02,0.023,0.0178
8.792e-04,0.04,0.06,0.0226,0.0286
8.811e-04,0.04,0.02,0.023,0.0186
8.831e-04,0.02,0.06,0.0246,0.0294
8.850e-04,0.04,0.02,0.0254,0.0182
8.869e-04,0.06,0.06,0.0262,0.0294
8.888e-04,0.04,0.02,0.0246,0.0186
8.907e-04,0.04,0.06,0.0246,0.0298
8.927e-04,0.04,0.02,0.0226,0.0174
8.946e-04,0.06,0.08,0.0246,0.029
8.965e-04,0.04,0.02,0.0242,0.0178
8.984e-04,0.04,0.08,0.0238,0.029
9.003e-04,0.04,0.02,0.0246,0.0182
9.023e-04,0.04,0.06,0.025,0.029
9.042e-04,0.06,0.02,0.0242,0.0174
9.061e-04,0.06,0.08,0.027,0.0282
9.080e-04,0.06,0.02,0.021,0.0166
9.099e-04,0.04,0.06,0.023,0.0278
9.119e-04,0.04,0,0.0194,0.017
9.138e-04,0.04,0.06,0.023,0.0274
9.157e-04,0.02,0.02,0.0214,0.0158
9.176e-04,0.04,0.06,0.0238,0.0266
9.195e-04,0.04,0.02,0.0226,0.015
9.215e-04,0.04,0.06,0.0202,0.0266
9.234e-04,0.06,0.02,0.0202,0.0154
9.253e-04,0.06,0.08,0.021,0.0262
9.272e-04,0.04,0.02,0.0202,0.0146
9.291e-04,0.06,0.08,0.0186,0.0246
9.311e-04,0.04,0,0.019,0.0122
9.330e-04,0.04,0.06,0.0182,0.0234
9.349e-04,0.02,0.02,0.0202,0.0122
9.368e-04,0.06,0.06,0.019,0.0242
9.387e-04,0.04,0.02,0.0186,0.0118
9.407e-04,0.04,0.06,0.019,0.023
9.426e-04,0.04,0.02,0.0166,0.0114
9.445e-04,0.04,0.08,0.0178,0.0218
9.464e-04,0.04,0,0.0162,0.0114
9.483e-04,0.04,0.08,0.0162,0.021
9.503e-04,0.04,0.02,0.0182,0.0098
9.522e-04,0.04,0.08,0.015,0.0202
9.541e-04,0.04,0,0.015,0.009
9.560e-04,0.06,0.06,0.0094,0.0198
9.579e-04,0.06,0.02,0.0134,0.009
9.599e-04,0.02,0.06,0.0182,0.0202
9.618e-04,0.04,0.02,0.0146,0.0086
9.637e-04,0.04,0.08,0.0146,0.0186
9.656e-04,0.04,0.02,0.0142,0.0078
9.675e-04,0.04,0.08,0.0114,0.0178
9.695e-04,0.06,0.02,0.0146,0.0074
9.714e-04,0.04,0.06,0.0094,0.017
9.733e-04,0.04,0.02,0.0134,0.0066
9.752e-04,0.04,0.06,0.0102,0.0166
9.771e-04,0.04,0.02,0.013,0.0054
9.791e-04,0.04,0.06,0.0118,0.0178
9.810e-04,0.06,0.02,0.0114,0.0062
9.829e-04,0.04,0.08,0.0078,0.015
9.848e-04,0.06,0.02,0.009,0.0038
9.867e-04,0.06,0.08,0.0102,0.0158
9.887e-04,0.06,0.02,0.0098,0.005
9.906e-04,0.04,0.08,0.0098,0.0158
9.925e-04,0.06,0.02,0.007,0.0042
9.944e-04,0.04,0.06,0.0106,0.015
9.963e-04,0.04,0.02,0.0098,0.003
9.983e-04,0.04,0.08,0.0098,0.0142
1.000e-03,0.04,0.02,0.0066,0.003
1.002e-03,0.04,0.08,0.0114,0.0134
1.004e-03,0.06,0.02,0.0034,0.0026
1.006e-03,0.06,0.08,0.0078,0.013
1.008e-03,0.06,0.02,0.0062,0.0022
1.010e-03,0.06,0.08,0.0054,0.0122
1.012e-03,0.06,0.02,0.0062,0.001
1.014e-03,0.06,0.08,0.0082,0.0114
1.016e-03,0.06,0.02,0.0058,-0.001
1.017e-03,0.04,0.08,0.005,0.0118
1.019e-03,0.04,0.02,0.005,0.0006
1.021e-03,0.04,0.08,0.0058,0.0114
1.023e-03,0.04,0.02,0.0046,0.0006
1.025e-03,0.06,0.08,0.0086,0.0122
1.027e-03,0.04,0.02,0.0054,0.0002
1.029e-03,0.06,0.08,0.0034,0.0102
1.031e-03,0.06,0.02,0.0042,0.0006
1.033e-03,0.06,0.08,0.005,0.0114
1.035e-03,0.06,0.02,0.0058,0.0002
1.037e-03,0.06,0.08,0.0026,0.0106
1.039e-03,0.06,0.02,0.0058,-0.0006
1.041e-03,0.06,0.08,0.0038,0.0102
1.042e-03,0.04,0.02,0.0046,-0.001
1.044e-03,0.06,0.08,0.0066,0.0082
1.046e-03,0.06,0.02,0.0038,-0.0014
1.048e-03,0.04,0.08,0.005,0.0102
1.050e-03,0.04,0.02,0.001,-0.0006
1.052e-03,0.06,0.08,0.005,0.009
1.054e-03,0.06,0.02,0.0026,-0.0014
1.056e-03,0.06,0.08,0.0034,0.009
1.058e-03,0.06,0.02,0.003,-0.001
1.060e-03,0.04,0.08,0.0058,0.0086
1.062e-03,0.04,0.02,0.0042,-0.0026
1.064e-03,0.06,0.08,0.003,0.0082
1.065e-03,0.06,0.02,0.0022,-0.0022
1.067e-03,0.06,0.08,0.0038,0.009
1.069e-03,0.06,0.02,0.0014,-0.0026
1.071e-03,0.06,0.08,0.0014,0.0082
1.073e-03,0.04,0.02,0.0038,-0.003
1.075e-03,0.04,0.08,0.0058,0.0074
1.077e-03,0.06,0.02,0.0022,-0.0022
1.079e-03,0.06,0.08,0.0042,0.0078
1.081e-03,0.06,0.02,0.0046,-0.0026
1.083e-03,0.06,0.08,0.0042,0.0082
1.085e-03,0.04,0.02,0.0006,-0.0042
1.087e-03,0.06,0.08,0.0018,0.0078
1.089e-03,0.06,0.02,0.0022,-0.003
1.090e-03,0.06,0.08,0.001,0.0074
1.092e-03,0.06,0.02,0.0026,-0.0034
1.094e-03,0.06,0.08,-0.0018,0.007
1.096e-03,0.06,0.04,0.0022,-0.0034
1.098e-03,0.06,0.08,0.0038,0.007
1.100e-03,0.06,0.02,-0.0002,-0.0038
1.102e-03,0.06,0.08,-0.0014,0.0066
1.104e-03,0.06,0.02,0.0006,-0.0046
1.106e-03,0.06,0.08,0.0026,0.0062
1.108e-03,0.06,0.02,0.0002,-0.0038
1.110e-03,0.06,0.08,0.001,0.009
1.112e-03,0.06,0.04,0.0014,-0.0038
1.113e-03,0.06,0.08,0.0022,0.0078
1.115e-03,0.06,0.04,0.0014,-0.0042
1.117e-03,0.06,0.1,0.0026,0.007
1.119e-03,0.06,0.04,-0.0002,-0.0046
1.121e-03,0.06,0.08,-0.003,0.0066
1.123e-03,0.06,0.04,0.0006,-0.0038
1.125e-03,0.06,0.08,0.0042,0.007
1.127e-03,0.04,0.02,-0.001,-0.0038
1.129e-03,0.04,0.08,0.0034,0.0082
1.131e-03,0.06,0.02,0.003,-0.0034
1.133e-03,0.04,0.08,0.001,0.0062
1.135e-03,0.06,0.04,0.0018,-0.0046
1.137e-03,0.06,0.08,0.0026,0.0066
1.138e-03,0.04,0.04,0.0002,-0.0054
1.140e-03,0.06,0.08,0.0006,0.0066
1.142e-03,0.08,0.04,0.001,-0.0042
1.144e-03,0.06,0.08,0.0034,0.0062
1.146e-03,0.06,0.02,0.0038,-0.0042
1.148e-03,0.06,0.08,0.0002,0.0058
1.150e-03,0.06,0.04,-0.0026,-0.0038
1.152e-03,0.06,0.08,0.0002,0.0062
1.154e-03,0.06,0.02,-0.0022,-0.005
1.156e-03,0.06,0.08,-0.0014,0.0066
1.158e-03,0.06,0.04,0.0014,-0.0046
1.160e-03,0.06,0.08,0.0026,0.0054
1.161e-03,0.06,0.04,-0.0006,-0.0038
1.163e-03,0.06,0.08,-0.0006,0.0078
1.165e-03,0.06,0.04,-0.0022,-0.0046
1.167e-03,0.06,0.08,0.0002,0.0058
1.169e-03,0.06,0.04,0.0006,-0.0042
1.171e-03,0.06,0.08,-0.0002,0.0058
1.173e-03,0.04,0.04,0.0002,-0.0042
1.175e-03,0.08,0.08,-0.0002,0.0058
1.177e-03,0.06,0.02,0.0038,-0.0046
1.179e-03,0.04,0.08,-0.0002,0.0058
1.181e-03,0.06,0.04,0.0026,-0.005
1.183e-03,0.06,0.08,-0.0014,0.0066
1.185e-03,0.06,0.04,0.0026,-0.005
1.186e-03,0.06,0.08,0.0002,0.0054
1.188e-03,0.08,0.04,0.001,-0.0042
1.190e-03,0.06,0.08,0.0022,0.0058
1.192e-03,0.06,0.04,0.0014,-0.0046
1.194e-03,0.08,0.08,0.0006,0.0066
1.196e-03,0.06,0.04,0.0018,-0.0046
1.198e-03,0.06,0.08,-0.0018,0.0058
1.200e-03,0.06,0.04,0.0006,-0.0034
1.202e-03,0.06,0.08,-0.0002,0.0074
1.204e-03,0.06,0.04,0.003,-0.0054
1.206e-03,0.06,0.08,-0.0006,0.0058
1.208e-03,0.06,0.02,-0.0002,-0.0042
1.209e-03,0.06,0.08,0.0002,0.0066
1.211e-03,0.06,0.04,-0.0006,-0.0046
1.213e-03,0.06,0.08,0.0002,0.0058
1.215e-03,0.06,0.04,-0.0018,-0.0054
1.217e-03,0.06,0.08,-0.0014,0.0062
1.219e-03,0.06,0.04,0.0022,-0.0038
1.221e-03,0.08,0.08,0.0006,0.0054
1.223e-03,0.06,0.04,0.0014,-0.0046
1.225e-03,0.06,0.08,0.0006,0.0054
1.227e-03,0.06,0.04,0.0014,-0.0046
1.229e-03,0.06,0.08,-0.0018,0.0058
1.231e-03,0.06,0.04,0.0014,-0.0046
1.233e-03,0.06,0.08,0.0046,0.0058
1.234e-03,0.08,0.02,-0.0042,-0.005
1.236e-03,0.06,0.08,0.003,0.0058
1.238e-03,0.08,0.04,0.0002,-0.0034
1.240e-03,0.06,0.08,0.001,0.0062
1.242e-03,0.06,0.04,-0.0014,-0.0038
1.244e-03,0.06,0.1,-0.0006,0.0074
1.246e-03,0.06,0.04,0.0006,-0.0042
1.248e-03,0.06,0.08,0.0014,0.0074
1.250e-03,0.06,0.04,0.001,-0.003
1.252e-03,0.08,0.08,0.0006,0.0058
1.254e-03,0.06,0.04,0.0006,-0.0046
1.256e-03,0.06,0.08,0.0006,0.0074
1.257e-03,0.06,0.04,-0.0006,-0.0054
1.259e-03,0.06,0.08,0.0002,0.0062
1.261e-03,0.06,0.02,0.0026,-0.0034
1.263e-03,0.06,0.08,0.0034,0.0062
1.265e-03,0.06,0.04,0.0026,-0.0038
1.267e-03,0.06,0.1,0.0006,0.0058
1.269e-03,0.06,0.04,0.0022,-0.003
1.271e-03,0.08,0.1,-0.0014,0.0062
1.273e-03,0.06,0.04,0.0018,-0.0042
1.275e-03,0.06,0.08,0.0026,0.0058
1.277e-03,0.06,0.04,0.003,-0.003
1.279e-03,0.06,0.08,0.0026,0.0074
1.281e-03,0.06,0.04,0.0034,-0.0042
1.282e-03,0.06,0.08,0.001,0.009
1.284e-03,0.04,0.04,-0.0006,-0.0038
1.286e-03,0.06,0.08,0.0022,0.0062
1.288e-03,0.06,0.04,0.0002,-0.003
1.290e-03,0.08,0.1,0.0006,0.0066
1.292e-03,0.06,0.04,0.0006,-0.0038
1.294e-03,0.08,0.08,-0.0026,0.0074
1.296e-03,0.06,0.04,0.0038,-0.003
1.298e-03,0.06,0.08,0.0014,0.007
1.300e-03,0.08,0.04,0.0022,-0.0026
1.302e-03,0.06,0.08,0.0034,0.0078
1.304e-03,0.06,0.04,0.0034,-0.003
1.305e-03,0.06,0.1,0.0014,0.0078
1.307e-03,0.06,0.04,0.0034,-0.003
1.309e-03,0.06,0.08,0.0018,0.0074
1.311e-03,0.08,0.04,0.0054,-0.0022
1.313e-03,0.08,0.1,0.003,0.0074
1.315e-03,0.06,0.04,0.0034,-0.003
1.317e-03,0.08,0.1,0.0014,0.0082
1.319e-03,0.08,0.04,0.0002,-0.0026
1.321e-03,0.06,0.08,0.0022,0.0078
1.323e-03,0.06,0.04,0.0002,-0.0026
1.325e-03,0.06,0.1,0.005,0.0082
1.327e-03,0.08,0.04,0.0042,-0.0014
1.329e-03,0.08,0.1,0.0034,0.0082
1.330e-03,0.08,0.04,0.0042,-0.0006
1.332e-03,0.06,0.1,0.0018,0.0098
1.334e-03,0.06,0.04,0.0034,-0.001
1.336e-03,0.06,0.08,0.0054,0.0094
1.338e-03,0.06,0.04,0.003,-0.0014
1.340e-03,0.06,0.1,0.0026,0.0082
1.342e-03,0.08,0.04,0.0018,-0.003
1.344e-03,0.06,0.08,0.0038,0.0106
1.346e-03,0.08,0.04,0.0066,0.0002
1.348e-03,0.08,0.1,0.0066,0.0098
1.350e-03,0.08,0.04,0.0018,-0.0002
1.352e-03,0.06,0.1,0.0026,0.0102
1.353e-03,0.06,0.04,0.0038,0.0002
1.355e-03,0.08,0.08,0.0054,0.0098
1.357e-03,0.06,0.04,0.0074,0.0006
1.359e-03,0.08,0.1,0.0058,0.0126
1.361e-03,0.06,0.04,0.007,0.001
1.363e-03,0.08,0.1,0.0062,0.0118
1.365e-03,0.08,0.04,0.0098,0.0018
1.367e-03,0.08,0.1,0.0066,0.0118
1.369e-03,0.06,0.04,0.0086,0.001
1.371e-03,0.06,0.1,0.005,0.0126
1.373e-03,0.08,0.04,0.0074,0.0022
1.375e-03,0.06,0.1,0.007,0.013
1.377e-03,0.06,0.04,0.0086,0.003
1.378e-03,0.06,0.08,0.0086,0.0138
1.380e-03,0.06,0.04,0.009,0.003
1.382e-03,0.08,0.08,0.0082,0.013
1.384e-03,0.06,0.04,0.009,0.0046
1.386e-03,0.08,0.1,0.0106,0.0138
1.388e-03,0.08,0.04,0.0082,0.0034
1.390e-03,0.06,0.1,0.0098,0.0142
1.392e-03,0.08,0.04,0.0106,0.0038
1.394e-03,0.08,0.1,0.0086,0.0146
1.396e-03,0.06,0.04,0.0082,0.005
1.398e-03,0.06,0.1,0.013,0.0158
1.400e-03,0.06,0.04,0.0126,0.0038
1.401e-03,0.06,0.08,0.0098,0.0154
1.403e-03,0.06,0.04,0.0098,0.0058
1.405e-03,0.08,0.1,0.0114,0.0166
1.407e-03,0.08,0.04,0.009,0.007
1.409e-03,0.06,0.1,0.0102,0.0174
1.411e-03,0.08,0.04,0.0126,0.0078
1.413e-03,0.08,0.1,0.0138,0.0174
1.415e-03,0.08,0.04,0.015,0.0082
1.417e-03,0.08,0.1,0.0122,0.0178
1.419e-03,0.08,0.04,0.0142,0.0078
1.421e-03,0.06,0.1,0.0162,0.0186
1.423e-03,0.06,0.04,0.0146,0.0078
1.425e-03,0.06,0.1,0.0114,0.0202
1.426e-03,0.08,0.04,0.0142,0.009
1.428e-03,0.06,0.1,0.0154,0.0194
1.430e-03,0.08,0.04,0.0134,0.0098
1.432e-03,0.06,0.1,0.0142,0.0198
1.434e-03,0.06,0.04,0.013,0.009
1.436e-03,0.08,0.1,0.017,0.0198
1.438e-03,0.08,0.04,0.0158,0.0094
1.440e-03,0.06,0.1,0.0142,0.0202
1.442e-03,0.06,0.04,0.0146,0.0102
1.444e-03,0.08,0.1,0.015,0.0206
1.446e-03,0.06,0.04,0.017,0.0102
1.448e-03,0.08,0.1,0.0162,0.0206
1.449e-03,0.08,0.04,0.015,0.0106
1.451e-03,0.06,0.1,0.017,0.0214
1.453e-03,0.08,0.04,0.0134,0.0098
1.455e-03,0.06,0.1,0.0138,0.0206
1.457e-03,0.08,0.04,0.017,0.0094
1.459e-03,0.1,0.1,0.0142,0.0206
1.461e-03,0.08,0.04,0.0198,0.0094
1.463e-03,0.08,0.1,0.017,0.0198
1.465e-03,0.08,0.04,0.013,0.0094
1.467e-03,0.08,0.1,0.0174,0.0194
1.469e-03,0.06,0.04,0.013,0.0086
1.471e-03,0.08,0.1,0.0122,0.0198
1.473e-03,0.08,0.04,0.0162,0.0082
1.474e-03,0.08,0.1,0.0138,0.019
1.476e-03,0.06,0.04,0.0154,0.0086
1.478e-03,0.08,0.1,0.0158,0.0178
1.480e-03,0.08,0.04,0.0126,0.007
1.482e-03,0.08,0.1,0.0142,0.0194
1.484e-03,0.06,0.04,0.0106,0.0066
1.486e-03,0.08,0.1,0.011,0.0174
1.488e-03,0.08,0.06,0.0102,0.0066
1.490e-03,0.08,0.1,0.011,0.0166
1.492e-03,0.06,0.04,0.0126,0.005
1.494e-03,0.08,0.1,0.009,0.017
1.496e-03,0.08,0.06,0.013,0.0038
1.497e-03,0.08,0.1,0.0102,0.0154
1.499e-03,0.08,0.06,0.0118,0.005
1.501e-03,0.08,0.1,0.0098,0.017
1.503e-03,0.08,0.04,0.0118,0.0034
1.505e-03,0.06,0.1,0.0094,0.0138
1.507e-03,0.06,0.04,0.0066,0.0042
1.509e-03,0.06,0.1,0.0098,0.0134
1.511e-03,0.08,0.04,0.009,0.003
1.513e-03,0.08,0.1,0.0078,0.0142
1.515e-03,0.06,0.04,0.0094,0.003
1.517e-03,0.08,0.1,0.0094,0.013
1.519e-03,0.08,0.04,0.0062,0.0026
1.521e-03,0.08,0.1,0.0054,0.0122
1.522e-03,0.06,0.04,0.007,0.0014
1.524e-03,0.08,0.12,0.0082,0.0122
1.526e-03,0.08,0.04,0.0054,0.0022
1.528e-03,0.08,0.1,0.0098,0.0126
1.530e-03,0.08,0.04,0.007,0.0006
1.532e-03,0.08,0.1,0.0062,0.0122
1.534e-03,0.08,0.06,0.0054,0.0002
1.536e-03,0.08,0.1,0.003,0.0106
1.538e-03,0.06,0.06,0.0082,-0.0014
1.540e-03,0.08,0.1,0.0042,0.011
1.542e-03,0.08,0.04,0.0038,-0.0002
1.544e-03,0.08,0.1,0.0054,0.0102
1.545e-03,0.06,0.04,0.007,-0.001
1.547e-03,0.08,0.1,0.0038,0.0098
1.549e-03,0.08,0.04,0.0034,-0.0002
1.551e-03,0.08,0.1,0.005,0.0094
1.553e-03,0.08,0.04,0.0026,-0.0014
1.555e-03,0.08,0.1,0.0034,0.0094
1.557e-03,0.08,0.04,0.0062,-0.001
1.559e-03,0.08,0.1,0.0022,0.0098
1.561e-03,0.06,0.04,0.005,-0.0026
1.563e-03,0.08,0.1,0.0026,0.0082
1.565e-03,0.08,0.06,0.0038,-0.0018
1.567e-03,0.08,0.1,0.0006,0.0086
1.569e-03,0.08,0.04,0.0026,-0.0022
1.570e-03,0.08,0.1,0.0026,0.009
1.572e-03,0.08,0.06,0.0042,-0.0026
1.574e-03,0.08,0.1,0.0038,0.0082
1.576e-03,0.08,0.06,0.0022,-0.003
1.578e-03,0.1,0.1,0.001,0.007
1.580e-03,0.08,0.06,0.0042,-0.003
1.582e-03,0.1,0.1,0.0038,0.0082
1.584e-03,0.08,0.06,0.0018,-0.0038
1.586e-03,0.08,0.1,0.0046,0.007
1.588e-03,0.08,0.04,0.003,-0.0034
1.590e-03,0.08,0.1,-0.0006,0.0062
1.592e-03,0.08,0.06,0.0014,-0.0034
1.594e-03,0.1,0.1,0.0026,0.0066
1.595e-03,0.08,0.06,0.0034,-0.0046
1.597e-03,0.1,0.1,0.003,0.0078
1.599e-03,0.08,0.06,0.0022,-0.0046
1.601e-03,0.08,0.1,0.0034,0.0078
1.603e-03,0.08,0.06,-0.0018,-0.0046
1.605e-03,0.08,0.1,0.0002,0.0074
1.607e-03,0.08,0.06,0.0018,-0.0042
1.609e-03,0.08,0.12,0.0002,0.0054
1.611e-03,0.08,0.06,-0.0006,-0.005
1.613e-03,0.08,0.1,0.0002,0.0074
1.615e-03,0.08,0.06,0.0018,-0.0042
1.617e-03,0.08,0.1,0.0002,0.0058
1.618e-03,0.08,0.06,-0.0006,-0.005
1.620e-03,0.08,0.1,0.0002,0.0062
1.622e-03,0.08,0.06,0.0018,-0.0042
1.624e-03,0.08,0.12,-0.0022,0.0074
1.626e-03,0.08,0.06,0.0002,-0.0054
1.628e-03,0.08,0.1,-0.0006,0.0062
1.630e-03,0.1,0.06,-0.0014,-0.005
1.632e-03,0.08,0.1,-0.0006,0.0046
1.634e-03,0.06,0.06,0.0002,-0.0062
1.636e-03,0.08,0.1,0.001,0.0054
1.638e-03,0.08,0.04,-0.0002,-0.0066
1.640e-03,0.08,0.1,-0.0002,0.0054
1.642e-03,0.08,0.06,0.0026,-0.005
1.643e-03,0.1,0.12,-0.001,0.0066
1.645e-03,0.08,0.06,0.0002,-0.005
1.647e-03,0.1,0.1,-0.0002,0.005
1.649e-03,0.08,0.06,0.0014,-0.0066
1.651e-03,0.08,0.1,-0.0018,0.0062
1.653e-03,0.08,0.06,0.0006,-0.0054
1.655e-03,0.08,0.12,-0.0002,0.005
1.657e-03,0.08,0.06,0.0006,-0.007
1.659e-03,0.08,0.1,-0.0022,0.0054
1.661e-03,0.08,0.06,-0.0018,-0.005
1.663e-03,0.08,0.1,0.0006,0.0046
1.665e-03,0.08,0.06,-0.0006,-0.0054
1.666e-03,0.1,0.12,-0.0022,0.005
1.668e-03,0.12,0.06,-0.003,-0.0066
1.670e-03,0.1,0.12,0.0006,0.0058
1.672e-03,0.08,0.06,0.001,-0.0058
1.674e-03,0.08,0.12,0.0006,0.0038
1.676e-03,0.08,0.06,-0.0026,-0.007
1.678e-03,0.08,0.1,0.0006,0.0038
1.680e-03,0.08,0.04,-0.0014,-0.0074
1.682e-03,0.08,0.12,-0.001,0.003
1.684e-03,0.08,0.06,-0.0002,-0.0058
1.686e-03,0.08,0.12,-0.0026,0.0046
1.688e-03,0.08,0.06,-0.0002,-0.0062
1.690e-03,0.08,0.12,-0.0026,0.0042
1.691e-03,0.08,0.06,-0.0022,-0.0066
1.693e-03,0.1,0.12,-0.001,0.0034
1.695e-03,0.08,0.06,-0.0018,-0.0062
1.697e-03,0.08,0.12,-0.0006,0.0058
1.699e-03,0.1,0.06,0.0002,-0.0062
1.701e-03,0.08,0.1,-0.0022,0.0058
1.703e-03,0.1,0.06,-0.0006,-0.0062
1.705e-03,0.1,0.12,-0.0002,0.0042
1.707e-03,0.08,0.06,-0.001,-0.007
1.709e-03,0.1,0.12,0.0006,0.0038
1.711e-03,0.08,0.06,0.0006,-0.0078
1.713e-03,0.08,0.1,-0.0042,0.0042
1.714e-03,0.08,0.06,-0.0014,-0.0058
1.716e-03,0.1,0.1,-0.0022,0.0038
1.718e-03,0.08,0.06,0.0002,-0.0074
1.720e-03,0.1,0.12,-0.0018,0.003
1.722e-03,0.08,0.06,-0.0002,-0.0058
1.724e-03,0.1,0.12,-0.0002,0.003
1.726e-03,0.08,0.06,-0.0014,-0.0078
1.728e-03,0.08,0.12,-0.0014,0.005
1.730e-03,0.08,0.06,-0.0014,-0.0074
1.732e-03,0.1,0.12,-0.0018,0.0046
1.734e-03,0.08,0.06,-0.001,-0.0058
1.736e-03,0.1,0.12,-0.0002,0.0038
1.738e-03,0.08,0.06,-0.0006,-0.0062
1.739e-03,0.1,0.12,0.0006,0.0038
1.741e-03,0.1,0.06,-0.0006,-0.007
1.743e-03,0.1,0.12,-0.0018,0.003
1.745e-03,0.08,0.06,-0.0014,-0.0062
1.747e-03,0.1,0.12,-0.001,0.003
1.749e-03,0.1,0.06,-0.0018,-0.0074
1.751e-03,0.1,0.12,-0.0034,0.0034
1.753e-03,0.1,0.06,0.0022,-0.0062
1.755e-03,0.1,0.12,-0.0014,0.0046
1.757e-03,0.08,0.06,-0.0002,-0.0066
1.759e-03,0.08,0.12,-0.0002,0.0038
1.761e-03,0.08,0.06,0.0014,-0.0074
1.762e-03,0.1,0.12,-0.0018,0.0034
1.764e-03,0.1,0.06,-0.0022,-0.0066
1.766e-03,0.1,0.12,-0.003,0.003
1.768e-03,0.08,0.06,0.0006,-0.0062
1.770e-03,0.08,0.12,-0.003,0.003
1.772e-03,0.08,0.06,-0.0018,-0.0066
1.774e-03,0.1,0.12,-0.003,0.0046
1.776e-03,0.1,0.06,-0.0006,-0.0066
1.778e-03,0.1,0.12,-0.001,0.0034
1.780e-03,0.1,0.06,-0.0038,-0.0062
1.782e-03,0.08,0.12,0.0002,0.0038
1.784e-03,0.1,0.06,-0.0006,-0.0078
1.786e-03,0.1,0.12,-0.0022,0.0034
1.787e-03,0.1,0.08,-0.0002,-0.0058
1.789e-03,0.1,0.12,0.003,0.0034
1.791e-03,0.08,0.06,-0.0014,-0.0062
1.793e-03,0.08,0.12,0.0002,0.0038
1.795e-03,0.1,0.06,-0.0002,-0.0066
1.797e-03,0.08,0.12,-0.0022,0.0042
1.799e-03,0.08,0.06,-0.0018,-0.0082
1.801e-03,0.1,0.12,-0.0022,0.0046
1.803e-03,0.1,0.06,-0.0014,-0.0058
1.805e-03,0.1,0.12,-0.0022,0.0034
1.807e-03,0.1,0.06,-0.001,-0.0066
1.809e-03,0.08,0.12,-0.003,0.0042
1.810e-03,0.08,0.06,-0.0022,-0.0062
1.812e-03,0.1,0.12,-0.0042,0.0046
1.814e-03,0.08,0.08,-0.0026,-0.0062
1.816e-03,0.1,0.12,-0.0042,0.0038
1.818e-03,0.1,0.06,-0.0006,-0.0062
1.820e-03,0.1,0.12,-0.0014,0.0042
1.822e-03,0.08,0.06,-0.0014,-0.0066
1.824e-03,0.1,0.12,-0.001,0.003
1.826e-03,0.1,0.06,-0.0026,-0.007
1.828e-03,0.08,0.12,-0.0022,0.0034
1.830e-03,0.1,0.06,0.0006,-0.0058
1.832e-03,0.1,0.12,-0.0002,0.0038
1.834e-03,0.1,0.06,-0.0006,-0.0062
1.835e-03,0.12,0.12,-0.0018,0.0054
1.837e-03,0.1,0.06,-0.003,-0.0058
1.839e-03,0.1,0.12,-0.0002,0.0038
1.841e-03,0.08,0.08,-0.0006,-0.007
1.843e-03,0.1,0.12,0.001,0.0054
1.845e-03,0.1,0.08,-0.003,-0.0058
1.847e-03,0.1,0.12,-0.0006,0.0042
1.849e-03,0.1,0.08,0.001,-0.0058
1.851e-03,0.1,0.12,-0.0018,0.0042
1.853e-03,0.1,0.06,-0.001,-0.0066
1.855e-03,0.08,0.12,0.0014,0.0038
1.857e-03,0.1,0.06,-0.0006,-0.0066
1.858e-03,0.1,0.14,-0.0006,0.0058
1.860e-03,0.1,0.08,-0.0018,-0.0058
1.862e-03,0.1,0.12,-0.0022,0.005
1.864e-03,0.1,0.08,-0.0018,-0.005
1.866e-03,0.12,0.12,0.0014,0.0054
1.868e-03,0.12,0.08,-0.0006,-0.0054
1.870e-03,0.1,0.12,0.0006,0.0066
1.872e-03,0.1,0.06,0.001,-0.0062
1.874e-03,0.12,0.12,-0.0006,0.005
1.876e-03,0.12,0.08,-0.001,-0.0058
1.878e-03,0.1,0.12,0.0034,0.0058
1.880e-03,0.12,0.08,0.0014,-0.005
1.882e-03,0.1,0.12,0.0038,0.005
1.883e-03,0.1,0.06,0.0042,-0.0042
1.885e-03,0.1,0.12,-0.0022,0.0054
1.887e-03,0.1,0.06,0.0002,-0.0038
1.889e-03,0.1,0.12,0.0002,0.0062
1.891e-03,0.1,0.06,0.0014,-0.0038
1.893e-03,0.1,0.12,-0.0026,0.0062
1.895e-03,0.08,0.06,0.0002,-0.0042
1.897e-03,0.1,0.12,0.0022,0.0062
1.899e-03,0.1,0.06,0.0002,-0.0038
1.901e-03,0.1,0.12,0.0006,0.0066
1.903e-03,0.1,0.08,0.001,-0.0038
1.905e-03,0.1,0.12,0.0002,0.0062
1.906e-03,0.12,0.06,0.001,-0.0034
1.908e-03,0.1,0.12,0.0026,0.007
1.910e-03,0.1,0.08,-0.0002,-0.0034
1.912e-03,0.12,0.14,0.0026,0.0066
1.914e-03,0.1,0.06,0.0022,-0.0026
1.916e-03,0.1,0.12,0.0014,0.0074
1.918e-03,0.1,0.06,0.0034,-0.003
1.920e-03,0.12,0.12,0.0022,0.0086
1.922e-03,0.1,0.08,0.0022,-0.0022
1.924e-03,0.1,0.14,0.003,0.0082
1.926e-03,0.1,0.06,0.0042,-0.0022
1.928e-03,0.12,0.14,0.001,0.0086
1.930e-03,0.1,0.06,0.0038,-0.003
1.931e-03,0.12,0.12,0.0026,0.0086
1.933e-03,0.1,0.06,0.0026,-0.0014
1.935e-03,0.1,0.12,0.0022,0.009
1.937e-03,0.1,0.06,0.0034,-0.0014
1.939e-03,0.12,0.12,0.0034,0.0098
1.941e-03,0.1,0.08,0.0062,-0.0002
1.943e-03,0.1,0.12,0.0026,0.0102
1.945e-03,0.1,0.08,0.0014,-0.0014
1.947e-03,0.1,0.12,0.0054,0.0098
1.949e-03,0.12,0.08,0.0018,-0.0002
1.951e-03,0.1,0.14,0.0058,0.0102
1.953e-03,0.1,0.08,0.0026,0.001
1.954e-03,0.1,0.14,0.003,0.011
1.956e-03,0.12,0.06,0.0034,-0.0014
1.958e-03,0.1,0.14,0.0074,0.0118
1.960e-03,0.1,0.08,0.0078,0.0014
1.962e-03,0.1,0.12,0.0074,0.0122
1.964e-03,0.1,0.08,0.009,0.0002
1.966e-03,0.12,0.14,0.0058,0.0118
1.968e-03,0.1,0.08,0.0102,0.0018
1.970e-03,0.12,0.12,0.0078,0.0126
1.972e-03,0.12,0.08,0.0066,0.0014
1.974e-03,0.1,0.12,0.0086,0.0122
1.976e-03,0.08,0.06,0.0074,0.0026
1.978e-03,0.1,0.12,0.0082,0.0138
1.979e-03,0.1,0.08,0.0078,0.003
1.981e-03,0.1,0.14,0.0086,0.013
1.983e-03,0.1,0.08,0.0078,0.0038
1.985e-03,0.1,0.12,0.0078,0.0138
1.987e-03,0.1,0.08,0.0098,0.0026
1.989e-03,0.1,0.12,0.0074,0.0134
1.991e-03,0.1,0.08,0.011,0.0034
1.993e-03,0.12,0.14,0.007,0.013
1.995e-03,0.1,0.08,0.0066,0.0038
1.997e-03,0.1,0.14,0.0126,0.0138
1.999e-03,0.1,0.08,0.011,0.0018
2.001e-03,0.1,0.14,0.0054,0.013
2.002e-03,0.12,0.08,0.0094,0.0026
2.004e-03,0.1,0.14,0.0074,0.0138
2.006e-03,0.1,0.08,0.0054,0.0026
2.008e-03,0.12,0.14,0.0078,0.013
2.010e-03,0.1,0.08,0.0098,0.0034
2.012e-03,0.1,0.14,0.0046,0.0134
2.014e-03,0.12,0.08,0.0094,0.0006
2.016e-03,0.1,0.14,0.007,0.013
2.018e-03,0.12,0.08,0.007,0.0022
2.020e-03,0.12,0.14,0.0086,0.0126
2.022e-03,0.1,0.08,0.0066,0.0022
2.024e-03,0.12,0.14,0.0038,0.0126
2.026e-03,0.1,0.08,0.0082,0.0018
2.027e-03,0.12,0.14,0.0086,0.0126
2.029e-03,0.1,0.08,0.0106,0.0006
2.031e-03,0.1,0.14,0.011,0.0122
2.033e-03,0.1,0.08,0.0066,-0.0002
2.035e-03,0.12,0.14,0.0074,0.0106
2.037e-03,0.1,0.08,0.0046,-0.001
2.039e-03,0.1,0.14,0.0058,0.0094
2.041e-03,0.12,0.08,0.0082,-0.0002
2.043e-03,0.1,0.14,0.0082,0.0102
2.045e-03,0.12,0.08,0.0062,-0.0002
2.047e-03,0.12,0.14,0.0046,0.0098
2.049e-03,0.12,0.08,0.003,-0.0018
2.050e-03,0.12,0.14,0.0042,0.0086
2.052e-03,0.1,0.08,0.0022,-0.001
2.054e-03,0.12,0.14,0.0042,0.0094
2.056e-03,0.1,0.08,0.003,-0.0018
2.058e-03,0.1,0.14,0.0038,0.0086
2.060e-03,0.12,0.08,0.0038,-0.0026
2.062e-03,0.1,0.14,0.0038,0.007
2.064e-03,0.1,0.08,0.003,-0.0034
2.066e-03,0.12,0.14,0.0022,0.0102
2.068e-03,0.12,0.08,-0.0002,-0.003
2.070e-03,0.1,0.14,0.0022,0.0074
2.072e-03,0.1,0.08,0.0002,-0.0026
2.074e-03,0.12,0.14,0.0038,0.007
2.075e-03,0.12,0.08,0.001,-0.0038
2.077e-03,0.12,0.14,0.0006,0.0066
2.079e-03,0.12,0.08,0.003,-0.0046
2.081e-03,0.1,0.14,-0.0006,0.007
2.083e-03,0.12,0.08,0.003,-0.0042
2.085e-03,0.1,0.14,0.0034,0.0058
2.087e-03,0.12,0.08,-0.0014,-0.0034
2.089e-03,0.1,0.14,-0.001,0.0054
2.091e-03,0.12,0.08,0.0002,-0.0042
2.093e-03,0.12,0.14,0.0006,0.0058
2.095e-03,0.12,0.08,0.003,-0.0046
2.097e-03,0.12,0.14,-0.0002,0.0062
2.098e-03,0.12,0.08,-0.0002,-0.0042
2.100e-03,0.12,0.14,0.0046,0.0058
2.102e-03,0.12,0.08,-0.0014,-0.0046
2.104e-03,0.12,0.14,0.0014,0.005
2.106e-03,0.12,0.08,-0.0002,-0.0054
2.108e-03,0.12,0.14,0.0014,0.0054
2.110e-03,0.12,0.08,-0.0018,-0.0058
2.112e-03,0.12,0.14,-0.0002,0.0046
2.114e-03,0.1,0.08,0.0002,-0.0066
2.116e-03,0.12,0.14,0.001,0.0058
2.118e-03,0.12,0.08,0.0018,-0.0062
2.120e-03,0.12,0.14,-0.0014,0.0046
2.122e-03,0.12,0.08,0.0006,-0.0082
2.123e-03,0.12,0.14,-0.0002,0.0046
2.125e-03,0.1,0.08,0.0002,-0.0054
2.127e-03,0.12,0.14,-0.003,0.0038
2.129e-03,0.12,0.08,-0.0002,-0.0054
2.131e-03,0.12,0.14,-0.001,0.0034
2.133e-03,0.12,0.08,-0.001,-0.0062
2.135e-03,0.12,0.14,-0.0042,0.0046
2.137e-03,0.12,0.08,-0.0018,-0.0066
2.139e-03,0.1,0.14,0.0006,0.0038
2.141e-03,0.12,0.08,-0.0042,-0.007
2.143e-03,0.12,0.14,-0.001,0.0026
2.145e-03,0.12,0.08,-0.0006,-0.0066
2.146e-03,0.12,0.14,-0.0002,0.0038
2.148e-03,0.1,0.08,-0.0046,-0.007
2.150e-03,0.12,0.14,-0.0022,0.005
2.152e-03,0.12,0.08,-0.0018,-0.007
2.154e-03,0.12,0.14,-0.0002,0.0034
2.156e-03,0.12,0.08,-0.0022,-0.0074
2.158e-03,0.12,0.14,0.0014,0.0038
2.160e-03,0.12,0.08,-0.001,-0.007
2.162e-03,0.1,0.14,-0.0062,0.0022
2.164e-03,0.12,0.08,0.0014,-0.0066
2.166e-03,0.12,0.14,-0.003,0.0022
2.168e-03,0.14,0.08,-0.0022,-0.0086
2.170e-03,0.12,0.14,-0.0026,0.0026
2.171e-03,0.12,0.08,-0.0002,-0.0066
2.173e-03,0.12,0.14,-0.0002,0.0022
2.175e-03,0.12,0.08,-0.0054,-0.0082
2.177e-03,0.12,0.14,-0.0042,0.003
2.179e-03,0.12,0.1,-0.0022,-0.0078
2.181e-03,0.12,0.14,-0.0014,0.003
2.183e-03,0.12,0.08,-0.0034,-0.0074
2.185e-03,0.12,0.14,-0.0018,0.003
2.187e-03,0.12,0.08,-0.0054,-0.0086
2.189e-03,0.1,0.14,-0.0026,0.0022
2.191e-03,0.12,0.08,-0.0042,-0.0078
2.193e-03,0.12,0.14,-0.005,0.0034
2.195e-03,0.12,0.08,-0.0018,-0.0074
2.196e-03,0.12,0.14,-0.0034,0.0026
2.198e-03,0.12,0.1,-0.0022,-0.0086
2.200e-03,0.12,0.14,-0.003,0.003
2.202e-03,0.12,0.08,-0.0026,-0.0078
2.204e-03,0.12,0.14,-0.0046,0.0034
2.206e-03,0.12,0.08,-0.0014,-0.0078
2.208e-03,0.12,0.14,-0.0034,0.0034
2.210e-03,0.14,0.1,-0.0042,-0.0082
2.212e-03,0.12,0.14,0.0002,0.0022
2.214e-03,0.12,0.08,-0.0054,-0.0094
2.216e-03,0.12,0.14,-0.0002,0.003
2.218e-03,0.12,0.08,-0.003,-0.0102
2.219e-03,0.12,0.14,-0.0046,0.0026
2.221e-03,0.12,0.1,-0.0022,-0.0078
2.223e-03,0.12,0.14,-0.0014,0.003
2.225e-03,0.12,0.1,-0.0026,-0.0078
2.227e-03,0.12,0.14,-0.0042,0.0022
2.229e-03,0.12,0.08,-0.0042,-0.007
2.231e-03,0.12,0.14,-0.0034,0.0022
2.233e-03,0.12,0.08,-0.0058,-0.0078
2.235e-03,0.1,0.14,-0.0022,0.0018
2.237e-03,0.12,0.1,-0.003,-0.0082
2.239e-03,0.12,0.14,-0.0022,0.0034
2.241e-03,0.12,0.1,-0.0038,-0.0074
2.243e-03,0.12,0.14,-0.0042,0.0014
2.244e-03,0.12,0.1,-0.0042,-0.0082
2.246e-03,0.12,0.14,-0.0014,0.0022
2.248e-03,0.12,0.08,-0.0038,-0.0086
2.250e-03,0.12,0.14,-0.0022,0.003
2.252e-03,0.12,0.08,-0.0026,-0.0086
2.254e-03,0.12,0.14,-0.0014,0.003
2.256e-03,0.12,0.1,-0.0042,-0.0082
2.258e-03,0.14,0.14,-0.0058,0.0018
2.260e-03,0.1,0.1,-0.0054,-0.0078
2.262e-03,0.12,0.14,-0.003,0.0018
2.264e-03,0.12,0.1,-0.0026,-0.0082
2.266e-03,0.1,0.14,0.0002,0.0022
2.267e-03,0.12,0.1,-0.0026,-0.0082
2.269e-03,0.12,0.14,-0.0022,0.0026
2.271e-03,0.12,0.1,-0.0054,-0.0078
2.273e-03,0.14,0.14,-0.003,0.0014
2.275e-03,0.12,0.1,-0.0034,-0.0082
2.277e-03,0.12,0.14,-0.0038,0.0022
2.279e-03,0.12,0.1,-0.0026,-0.0074
2.281e-03,0.12,0.14,-0.0018,0.0022
2.283e-03,0.12,0.1,-0.0018,-0.0078
2.285e-03,0.14,0.14,-0.0054,0.0018
2.287e-03,0.12,0.1,-0.0034,-0.0082
2.289e-03,0.12,0.14,-0.0042,0.0026
2.291e-03,0.12,0.1,-0.005,-0.0086
2.292e-03,0.12,0.14,-0.005,0.0014
2.294e-03,0.12,0.1,-0.0026,-0.0086
2.296e-03,0.14,0.16,-0.0042,0.0018
2.298e-03,0.12,0.1,-0.0026,-0.0094
2.300e-03,0.12,0.16,-0.0022,0.0026
2.302e-03,0.12,0.1,-0.0062,-0.0082
2.304e-03,0.12,0.14,-0.0022,0.0034
2.306e-03,0.12,0.1,-0.0042,-0.0086
2.308e-03,0.12,0.14,-0.0034,0.0018
2.310e-03,0.12,0.1,-0.007,-0.0078
2.312e-03,0.12,0.14,-0.0018,0.003
2.314e-03,0.12,0.1,-0.003,-0.009
2.315e-03,0.12,0.14,-0.0018,0.0034
2.317e-03,0.12,0.1,-0.0006,-0.0078
2.319e-03,0.12,0.16,-0.0022,0.0038
2.321e-03,0.12,0.1,-0.0022,-0.0094
2.323e-03,0.12,0.14,-0.0014,0.0034
2.325e-03,0.14,0.1,-0.005,-0.0082
2.327e-03,0.14,0.14,-0.0062,0.0022
2.329e-03,0.12,0.1,-0.0034,-0.0086
2.331e-03,0.12,0.14,-0.0022,0.0022
2.333e-03,0.12,0.1,-0.0054,-0.0082
2.335e-03,0.12,0.14,-0.0054,0.0042
2.337e-03,0.12,0.08,-0.0038,-0.0078
2.339e-03,0.14,0.14,-0.003,0.0014
2.340e-03,0.12,0.1,-0.0042,-0.0086
2.342e-03,0.12,0.14,-0.005,0.001
2.344e-03,0.12,0.1,-0.0002,-0.0078
2.346e-03,0.14,0.14,-0.0058,0.0022
2.348e-03,0.12,0.1,-0.003,-0.0086
2.350e-03,0.12,0.14,-0.0026,0.0014
2.352e-03,0.12,0.1,-0.0026,-0.0082
2.354e-03,0.12,0.14,-0.0014,0.0018
2.356e-03,0.14,0.1,-0.0058,-0.009
2.358e-03,0.12,0.14,-0.0026,0.0018
2.360e-03,0.12,0.1,-0.0026,-0.0086
2.362e-03,0.12,0.14,-0.0022,0.0018
2.363e-03,0.12,0.1,-0.003,-0.0082
2.365e-03,0.12,0.16,-0.0054,0.0022
2.367e-03,0.14,0.1,-0.003,-0.0078
2.369e-03,0.14,0.16,-0.0014,0.0026
2.371e-03,0.12,0.1,-0.0038,-0.0086
2.373e-03,0.12,0.14,-0.0018,0.0022
2.375e-03,0.14,0.1,-0.0042,-0.009
2.377e-03,0.14,0.16,-0.0034,0.0022
2.379e-03,0.12,0.1,-0.0026,-0.0082
2.381e-03,0.14,0.16,-0.0006,0.003
2.383e-03,0.14,0.1,-0.0042,-0.0082
2.385e-03,0.14,0.16,-0.0018,0.0026
2.387e-03,0.12,0.1,-0.0014,-0.0082
2.388e-03,0.12,0.14,-0.0022,0.0018
2.390e-03,0.12,0.1,-0.005,-0.0074
2.392e-03,0.12,0.14,-0.0034,0.0014
2.394e-03,0.14,0.1,-0.003,-0.0078
2.396e-03,0.14,0.16,-0.0018,0.0018
2.398e-03,0.12,0.1,-0.0046,-0.0074
2.400e-03,0.12,0.16,-0.0026,0.0022
2.402e-03,0.12,0.1,-0.0022,-0.009
2.404e-03,0.14,0.16,-0.0026,0.0018
2.406e-03,0.14,0.1,-0.0066,-0.0078
2.408e-03,0.14,0.16,-0.0042,0.003
2.410e-03,0.14,0.1,-0.0062,-0.009
2.411e-03,0.14,0.14,-0.0022,0.003
2.413e-03,0.12,0.1,-0.0026,-0.0074
2.415e-03,0.1,0.16,-0.0018,0.0022
2.417e-03,0.14,0.1,-0.0038,-0.0082
2.419e-03,0.14,0.16,-0.0042,0.0026
2.421e-03,0.12,0.1,-0.0022,-0.0078
2.423e-03,0.14,0.16,-0.005,0.0026
2.425e-03,0.14,0.1,-0.005,-0.0082
2.427e-03,0.12,0.16,-0.0066,0.003
2.429e-03,0.12,0.1,-0.005,-0.0086
2.431e-03,0.12,0.16,-0.0042,0.0026
2.433e-03,0.14,0.1,-0.0034,-0.0074
2.435e-03,0.12,0.16,-0.0026,0.0022
2.436e-03,0.14,0.1,0.0002,-0.0074
2.438e-03,0.12,0.16,-0.0034,0.0018
2.440e-03,0.12,0.1,0.0002,-0.0086
2.442e-03,0.14,0.16,-0.0026,0.0014
2.444e-03,0.12,0.1,0.001,-0.0086
2.446e-03,0.12,0.16,-0.0046,0.0018
2.448e-03,0.14,0.1,-0.0042,-0.0078
2.450e-03,0.14,0.16,-0.0002,0.0026
2.452e-03,0.14,0.1,-0.0014,-0.0074
2.454e-03,0.14,0.16,-0.0022,0.0026
2.456e-03,0.14,0.1,-0.0018,-0.0086
2.458e-03,0.12,0.16,-0.0006,0.0034
2.459e-03,0.12,0.1,-0.0034,-0.0086
2.461e-03,0.12,0.16,-0.0022,0.0034
2.463e-03,0.14,0.1,-0.0022,-0.0074
2.465e-03,0.12,0.16,-0.003,0.0038
2.467e-03,0.12,0.1,-0.0042,-0.0074
2.469e-03,0.12,0.16,-0.0034,0.0042
2.471e-03,0.14,0.1,-0.0058,-0.0078
2.473e-03,0.14,0.16,-0.0002,0.0038
2.475e-03,0.12,0.1,-0.003,-0.0074
2.477e-03,0.14,0.14,-0.0002,0.003
2.479e-03,0.12,0.1,-0.0014,-0.0082
2.481e-03,0.14,0.16,-0.0026,0.0018
2.483e-03,0.12,0.1,-0.005,-0.0074
2.484e-03,0.12,0.16,-0.0026,0.003
2.486e-03,0.12,0.1,0.0018,-0.0074
2.488e-03,0.14,0.16,-0.0002,0.0034
2.490e-03,0.12,0.1,-0.0014,-0.0074
2.492e-03,0.12,0.16,-0.0034,0.0046
2.494e-03,0.14,0.1,-0.0018,-0.007
2.496e-03,0.12,0.16,-0.0022,0.003
2.498e-03,0.12,0.1,-0.0026,-0.007
2.500e-03,0.14,0.16,0.0002,0.0038
2.502e-03,0.14,0.1,-0.003,-0.0066
2.504e-03,0.14,0.16,0.0006,0.0026
2.506e-03,0.12,0.1,-0.0034,-0.0086
2.507e-03,0.14,0.16,-0.0014,0.0038
2.509e-03,0.12,0.1,-0.003,-0.0066
2.511e-03,0.12,0.16,-0.005,0.005
2.513e-03,0.12,0.1,-0.0022,-0.0078
2.515e-03,0.14,0.16,-0.0002,0.0034
2.517e-03,0.12,0.1,-0.0018,-0.0078
2.519e-03,0.14,0.16,-0.0026,0.0038
2.521e-03,0.14,0.1,-0.0006,-0.0066
2.523e-03,0.14,0.16,-0.0026,0.003
2.525e-03,0.14,0.1,-0.001,-0.0058
2.527e-03,0.14,0.16,0.0018,0.0042
2.529e-03,0.14,0.1,-0.0058,-0.0062
2.531e-03,0.12,0.16,-0.003,0.0046
2.532e-03,0.12,0.12,-0.0022,-0.0058
2.534e-03,0.14,0.16,-0.001,0.0042
2.536e-03,0.14,0.12,-0.0022,-0.0054
2.538e-03,0.14,0.16,-0.0014,0.0046
2.540e-03,0.14,0.1,-0.0014,-0.0062
2.542e-03,0.14,0.16,-0.0038,0.0046
2.544e-03,0.14,0.1,0.0022,-0.0062
2.546e-03,0.14,0.16,-0.001,0.0034
2.548e-03,0.14,0.1,-0.0018,-0.0062
2.550e-03,0.14,0.18,-0.0046,0.0038
2.552e-03,0.14,0.1,-0.0006,-0.0058
2.554e-03,0.14,0.16,-0.0022,0.005
2.555e-03,0.14,0.1,-0.0026,-0.0074
2.557e-03,0.14,0.16,-0.0018,0.003
2.559e-03,0.14,0.1,-0.0002,-0.0078
2.561e-03,0.14,0.16,-0.0018,0.0038
2.563e-03,0.14,0.1,-0.0026,-0.0066
2.565e-03,0.14,0.16,-0.0018,0.0046
2.567e-03,0.14,0.1,-0.0022,-0.007
2.569e-03,0.14,0.16,-0.001,0.003
2.571e-03,0.14,0.1,-0.0014,-0.007
2.573e-03,0.14,0.16,-0.001,0.0034
2.575e-03,0.12,0.1,-0.0014,-0.0062
2.577e-03,0.14,0.16,-0.003,0.003
2.579e-03,0.14,0.1,-0.001,-0.0066
2.580e-03,0.14,0.16,-0.0014,0.0034
2.582e-03,0.14,0.1,-0.003,-0.007
2.584e-03,0.14,0.16,-0.003,0.0026
2.586e-03,0.14,0.12,0.0002,-0.0082
2.588e-03,0.14,0.16,-0.0022,0.0038
2.590e-03,0.14,0.12,-0.0018,-0.0062
2.592e-03,0.14,0.16,-0.0038,0.0034
2.594e-03,0.14,0.12,-0.0018,-0.007
2.596e-03,0.14,0.16,-0.0022,0.0034
2.598e-03,0.14,0.12,-0.005,-0.0078
2.600e-03,0.14,0.16,-0.005,0.0022
2.602e-03,0.14,0.12,0.0006,-0.0078
2.603e-03,0.14,0.16,-0.0034,0.0026
2.605e-03,0.14,0.12,-0.0038,-0.0078
2.607e-03,0.14,0.16,-0.0026,0.0026
2.609e-03,0.14,0.12,-0.0022,-0.0078
2.611e-03,0.14,0.16,-0.0002,0.0042
2.613e-03,0.14,0.12,-0.0014,-0.0082
2.615e-03,0.12,0.16,-0.003,0.0022
2.617e-03,0.14,0.12,-0.0022,-0.0074
2.619e-03,0.14,0.16,-0.0022,0.0022
2.621e-03,0.14,0.12,0.0002,-0.0082
2.623e-03,0.14,0.16,-0.001,0.0014
2.625e-03,0.14,0.12,-0.0022,-0.0082
2.627e-03,0.14,0.16,-0.0018,0.0018
2.628e-03,0.14,0.12,-0.0018,-0.0074
2.630e-03,0.14,0.16,-0.0022,0.0026
2.632e-03,0.14,0.1,-0.001,-0.009
2.634e-03,0.14,0.16,-0.0054,0.0026
2.636e-03,0.14,0.12,-0.0006,-0.0078
2.638e-03,0.16,0.16,-0.003,0.0034
2.640e-03,0.14,0.1,-0.0026,-0.0078
2.642e-03,0.14,0.16,-0.0038,0.0018
2.644e-03,0.14,0.12,-0.0006,-0.0098
2.646e-03,0.12,0.16,-0.005,0.0022
2.648e-03,0.14,0.12,-0.0022,-0.0082
2.650e-03,0.14,0.16,-0.0046,0.0014
2.651e-03,0.14,0.12,-0.0046,-0.0078
2.653e-03,0.16,0.18,-0.0022,0.0026
2.655e-03,0.12,0.1,-0.0018,-0.0094
2.657e-03,0.16,0.16,-0.005,0.0026
2.659e-03,0.14,0.1,-0.0022,-0.0082
2.661e-03,0.16,0.16,-0.0026,0.0014
2.663e-03,0.14,0.12,-0.0034,-0.0082
2.665e-03,0.14,0.16,-0.0026,0.0034
2.667e-03,0.14,0.12,-0.0022,-0.0082
2.669e-03,0.14,0.16,-0.0038,0.0014
2.671e-03,0.14,0.12,-0.005,-0.0086
2.673e-03,0.14,0.18,-0.0034,0.003
2.675e-03,0.14,0.12,-0.0046,-0.0098
2.676e-03,0.14,0.16,-0.0046,0.0046
2.678e-03,0.14,0.12,-0.003,-0.0082
2.680e-03,0.14,0.16,0.0006,0.0014
2.682e-03,0.14,0.12,-0.0014,-0.0086
2.684e-03,0.14,0.16,-0.0058,0.0026
2.686e-03,0.14,0.12,-0.005,-0.0082
2.688e-03,0.14,0.18,-0.0062,0.003
2.690e-03,0.16,0.12,-0.0006,-0.0082
2.692e-03,0.14,0.16,-0.005,0.0022
2.694e-03,0.16,0.12,-0.0018,-0.0086
2.696e-03,0.14,0.16,-0.0014,0.0022
2.698e-03,0.14,0.12,-0.0042,-0.0098
2.699e-03,0.14,0.18,-0.007,0.0014
2.701e-03,0.14,0.12,-0.0038,-0.0078
2.703e-03,0.16,0.18,-0.0014,0.0026
2.705e-03,0.14,0.12,-0.0038,-0.0086
2.707e-03,0.16,0.18,-0.0018,0.0014
2.709e-03,0.14,0.12,-0.0018,-0.0094
2.711e-03,0.14,0.16,-0.003,0.0026
2.713e-03,0.14,0.12,-0.003,-0.0094
2.715e-03,0.14,0.18,-0.0018,0.0038
2.717e-03,0.14,0.12,-0.0042,-0.0082
2.719e-03,0.16,0.18,-0.005,0.0014
2.721e-03,0.14,0.12,-0.0014,-0.0086
2.723e-03,0.16,0.18,-0.0002,0.0014
2.724e-03,0.16,0.12,-0.0062,-0.0094
2.726e-03,0.14,0.16,-0.0062,0.0018
2.728e-03,0.14,0.12,-0.0034,-0.009
2.730e-03,0.14,0.16,-0.0018,0.0018
2.732e-03,0.14,0.12,-0.0026,-0.0106
2.734e-03,0.14,0.16,-0.0046,0.0022
2.736e-03,0.14,0.12,-0.0038,-0.0098
2.738e-03,0.14,0.18,-0.001,0.0022
2.740e-03,0.14,0.12,-0.0058,-0.0082
2.742e-03,0.14,0.16,-0.0078,0.0018
2.744e-03,0.16,0.12,-0.005,-0.009
2.746e-03,0.14,0.18,-0.0034,0.0022
2.747e-03,0.16,0.12,-0.0014,-0.0098
2.749e-03,0.14,0.18,-0.0018,0.0018
2.751e-03,0.14,0.12,-0.0058,-0.009
2.753e-03,0.16,0.18,-0.005,0.0018
2.755e-03,0.16,0.12,-0.0006,-0.009
2.757e-03,0.16,0.18,-0.0034,0.0014
2.759e-03,0.14,0.12,-0.0006,-0.0094
2.761e-03,0.16,0.18,-0.0034,0.0022
2.763e-03,0.14,0.12,-0.0018,-0.009
2.765e-03,0.14,0.18,-0.0018,0.001
2.767e-03,0.14,0.12,-0.0098,-0.0098
2.769e-03,0.14,0.18,-0.0022,0.0018
2.771e-03,0.14,0.12,-0.0042,-0.0086
2.772e-03,0.14,0.18,-0.0022,0.0026
2.774e-03,0.14,0.12,-0.0042,-0.0086
2.776e-03,0.14,0.16,-0.0058,0.003
2.778e-03,0.14,0.12,-0.0058,-0.0086
2.780e-03,0.16,0.18,0.0006,0.003
2.782e-03,0.14,0.12,-0.001,-0.0094
2.784e-03,0.16,0.18,-0.003,0.0022
2.786e-03,0.14,0.12,-0.0042,-0.0086
2.788e-03,0.16,0.18,-0.0062,0.0014
2.790e-03,0.14,0.12,-0.0034,-0.0102
2.792e-03,0.14,0.18,-0.0026,0.0014
2.794e-03,0.14,0.12,-0.0026,-0.0086
2.795e-03,0.16,0.18,-0.0054,0.0018
2.797e-03,0.16,0.12,-0.0034,-0.0086
2.799e-03,0.16,0.18,-0.0062,0.0014
2.801e-03,0.16,0.12,-0.0046,-0.0082
2.803e-03,0.16,0.18,-0.003,0.001
2.805e-03,0.16,0.12,-0.0042,-0.0078
2.807e-03,0.16,0.18,-0.0014,0.0018
2.809e-03,0.16,0.12,-0.0058,-0.009
2.811e-03,0.14,0.18,-0.003,0.0014
2.813e-03,0.14,0.12,-0.0078,-0.0086
2.815e-03,0.14,0.18,-0.0026,0.0022
2.817e-03,0.14,0.12,0.0006,-0.0086
2.819e-03,0.16,0.16,0.0002,0.0022
2.820e-03,0.14,0.12,-0.0026,-0.0086
2.822e-03,0.16,0.18,-0.0046,0.001
2.824e-03,0.14,0.12,-0.0054,-0.0094
2.826e-03,0.16,0.18,-0.0022,0.0006
2.828e-03,0.16,0.12,-0.0026,-0.0094
2.830e-03,0.14,0.18,-0.0022,0.001
2.832e-03,0.16,0.12,-0.0022,-0.0086
2.834e-03,0.16,0.18,-0.003,0.0018
2.836e-03,0.16,0.12,-0.0054,-0.0082
2.838e-03,0.14,0.18,-0.0034,0.0018
2.840e-03,0.14,0.12,-0.0026,-0.009
2.842e-03,0.14,0.18,-0.0022,0.0014
2.844e-03,0.16,0.12,-0.0054,-0.009
2.845e-03,0.14,0.18,-0.005,0.001
2.847e-03,0.14,0.12,-0.0038,-0.0086
2.849e-03,0.16,0.18,-0.0034,0.0026
2.851e-03,0.16,0.12,-0.0026,-0.009
2.853e-03,0.14,0.18,-0.005,0.0022
2.855e-03,0.16,0.12,-0.0034,-0.0086
2.857e-03,0.14,0.18,-0.0046,0.0026
2.859e-03,0.16,0.12,-0.0026,-0.0082
2.861e-03,0.16,0.18,-0.0026,0.001
2.863e-03,0.16,0.12,-0.001,-0.0094
2.865e-03,0.16,0.18,-0.003,0.0014
2.867e-03,0.16,0.12,-0.0062,-0.0102
2.868e-03,0.16,0.18,-0.0046,0.0014
2.870e-03,0.14,0.12,-0.005,-0.0086
2.872e-03,0.16,0.18,-0.001,0.0018
2.874e-03,0.14,0.14,-0.0054,-0.0094
2.876e-03,0.14,0.18,-0.005,0.0014
2.878e-03,0.16,0.12,-0.005,-0.0094
2.880e-03,0.14,0.18,-0.0062,0.0014
2.882e-03,0.18,0.12,-0.003,-0.0086
2.884e-03,0.16,0.18,-0.0034,0.0014
2.886e-03,0.16,0.12,-0.0034,-0.0078
2.888e-03,0.14,0.18,-0.0034,0.0018
2.890e-03,0.16,0.12,-0.0046,-0.009
2.892e-03,0.14,0.18,-0.0054,0.0014
2.893e-03,0.14,0.12,-0.0018,-0.0082
2.895e-03,0.16,0.18,-0.0058,0.0014
2.897e-03,0.14,0.12,-0.003,-0.0082
2.899e-03,0.16,0.18,-0.0066,0.0018
2.901e-03,0.14,0.12,-0.0046,-0.0094
2.903e-03,0.16,0.18,-0.0074,0.0014
2.905e-03,0.16,0.12,-0.0046,-0.0082
2.907e-03,0.14,0.18,-0.0066,0.0014
2.909e-03,0.14,0.12,-0.0066,-0.0102
2.911e-03,0.16,0.18,-0.0014,0.0018
2.913e-03,0.16,0.12,-0.0054,-0.0106
2.915e-03,0.14,0.18,-0.0042,0.0018
2.916e-03,0.14,0.12,-0.0046,-0.0094
2.918e-03,0.16,0.18,-0.0054,0.001
2.920e-03,0.14,0.12,-0.003,-0.0078
2.922e-03,0.16,0.18,-0.003,0.0018
2.924e-03,0.16,0.12,-0.0038,-0.009
2.926e-03,0.16,0.18,-0.003,0.001
2.928e-03,0.16,0.12,-0.0018,-0.0082
2.930e-03,0.14,0.18,-0.0034,0.0022
2.932e-03,0.14,0.12,-0.0034,-0.0082
2.934e-03,0.16,0.18,-0.0042,0.0018
2.936e-03,0.16,0.12,-0.007,-0.0086
2.938e-03,0.14,0.18,-0.0042,0.0014
2.940e-03,0.14,0.12,-0.003,-0.0086
2.941e-03,0.16,0.18,-0.0046,0.0006
2.943e-03,0.14,0.12,-0.0018,-0.009
2.945e-03,0.14,0.18,-0.0022,0.0022
2.947e-03,0.14,0.12,-0.0026,-0.009
2.949e-03,0.14,0.18,-0.0054,0.001
2.951e-03,0.14,0.12,-0.0022,-0.0086
2.953e-03,0.16,0.18,-0.0018,0.0022
2.955e-03,0.16,0.12,0.0002,-0.0086
2.957e-03,0.14,0.18,-0.0034,0.0014
2.959e-03,0.16,0.12,-0.003,-0.0086
2.961e-03,0.16,0.18,-0.003,0.0018
2.963e-03,0.14,0.12,-0.0026,-0.0086
2.964e-03,0.14,0.18,-0.0018,0.0018
2.966e-03,0.16,0.12,-0.005,-0.0094
2.968e-03,0.14,0.18,-0.001,0.0014
2.970e-03,0.16,0.12,-0.001,-0.0078
2.972e-03,0.14,0.18,-0.0022,0.0014
2.974e-03,0.16,0.12,0.001,-0.0082
2.976e-03,0.14,0.18,-0.0066,0.0022
2.978e-03,0.16,0.12,-0.0046,-0.0086
2.980e-03,0.16,0.18,-0.005,0.0014
2.982e-03,0.14,0.12,-0.005,-0.0098
2.984e-03,0.16,0.18,-0.0038,0.0018
2.986e-03,0.14,0.12,-0.0026,-0.0078
2.988e-03,0.16,0.18,-0.0018,0.001
2.989e-03,0.16,0.12,-0.0066,-0.0082
2.991e-03,0.14,0.18,-0.0042,0.001
2.993e-03,0.14,0.12,-0.0054,-0.0082
2.995e-03,0.14,0.16,-0.005,0.003
2.997e-03,0.14,0.12,-0.0058,-0.0094
2.999e-03,0.16,0.18,-0.0006,0.0038
3.001e-03,0.14,0.12,-0.0046,-0.0074
3.003e-03,0.16,0.18,-0.005,0.0026
3.005e-03,0.16,0.12,0.0002,-0.0098
3.007e-03,0.14,0.18,-0.0042,0.0018
3.009e-03,0.14,0.12,-0.0022,-0.009
3.011e-03,0.16,0.16,-0.0022,0.0022
3.012e-03,0.14,0.12,-0.0014,-0.0078
3.014e-03,0.14,0.16,-0.0042,0.0014
3.016e-03,0.16,0.12,-0.0026,-0.0094
3.018e-03,0.16,0.16,-0.003,0.0022
3.020e-03,0.14,0.12,-0.0074,-0.0086
3.022e-03,0.14,0.18,-0.0034,0.0014
3.024e-03,0.14,0.12,-0.0042,-0.0086
3.026e-03,0.16,0.18,-0.0042,0.0014
3.028e-03,0.14,0.12,-0.0046,-0.0102
3.030e-03,0.14,0.16,-0.0062,0.001
3.032e-03,0.14,0.12,-0.0054,-0.009
3.034e-03,0.16,0.18,-0.0046,0.001
3.036e-03,0.16,0.12,-0.0086,-0.009
3.037e-03,0.14,0.18,-0.0042,0.0018
3.039e-03,0.14,0.12,-0.0034,-0.0086
3.041e-03,0.14,0.16,-0.0042,0.0022
3.043e-03,0.14,0.12,-0.0066,-0.0082
3.045e-03,0.14,0.18,-0.0046,0.0022
3.047e-03,0.16,0.12,-0.0054,-0.0086
3.049e-03,0.16,0.18,-0.0034,0.0014
3.051e-03,0.14,0.12,-0.0026,-0.009
3.053e-03,0.14,0.16,-0.0038,0.0018
3.055e-03,0.14,0.12,-0.0042,-0.0094
3.057e-03,0.16,0.16,-0.0058,0.0014
3.059e-03,0.14,0.12,-0.0026,-0.009
3.060e-03,0.14,0.16,-0.0002,0.0026
3.062e-03,0.14,0.12,-0.003,-0.009
3.064e-03,0.14,0.18,-0.0022,0.0018
3.066e-03,0.16,0.12,-0.0034,-0.0094
3.068e-03,0.14,0.16,-0.0006,0.0026
3.070e-03,0.14,0.12,-0.005,-0.0078
3.072e-03,0.14,0.16,-0.0026,0.0022
3.074e-03,0.14,0.12,-0.0026,-0.0094
3.076e-03,0.14,0.16,-0.0042,0.0018
3.078e-03,0.14,0.1,-0.0042,-0.0086
3.080e-03,0.14,0.16,-0.0046,0.0026
3.082e-03,0.14,0.12,-0.0058,-0.0078
3.084e-03,0.14,0.16,-0.0046,0.0018
3.085e-03,0.14,0.12,-0.0014,-0.0082
3.087e-03,0.14,0.16,-0.0042,0.0014
3.089e-03,0.16,0.12,-0.0042,-0.009
3.091e-03,0.14,0.16,-0.0026,0.0026
3.093e-03,0.14,0.12,-0.003,-0.0078
3.095e-03,0.12,0.16,-0.0046,0.0014
3.097e-03,0.14,0.1,-0.0042,-0.0086
3.099e-03,0.14,0.16,-0.005,0.0022
3.101e-03,0.14,0.12,-0.0022,-0.0086
3.103e-03,0.14,0.16,-0.0046,0.0018
3.105e-03,0.14,0.12,-0.0014,-0.0082
3.107e-03,0.14,0.16,-0.0058,0.0026
3.108e-03,0.14,0.12,-0.0018,-0.0094
3.110e-03,0.14,0.16,-0.0022,0.0014
3.112e-03,0.14,0.12,-0.0018,-0.0082
3.114e-03,0.14,0.16,-0.0026,0.0018
3.116e-03,0.14,0.1,-0.0042,-0.0078
3.118e-03,0.14,0.16,-0.0054,0.0026
3.120e-03,0.16,0.12,-0.0042,-0.0086
3.122e-03,0.14,0.18,-0.0034,0.0018
3.124e-03,0.14,0.12,-0.0034,-0.0078
3.126e-03,0.14,0.16,-0.0026,0.0018
3.128e-03,0.14,0.1,-0.0046,-0.009
3.130e-03,0.14,0.16,-0.005,0.0018
3.132e-03,0.14,0.12,-0.0002,-0.0086
3.133e-03,0.14,0.16,-0.0014,0.0026
3.135e-03,0.14,0.12,-0.003,-0.0074
3.137e-03,0.14,0.16,-0.0042,0.0022
3.139e-03,0.14,0.1,-0.0046,-0.009
3.141e-03,0.16,0.16,-0.0042,0.0022
3.143e-03,0.14,0.12,0.0006,-0.0074
3.145e-03,0.14,0.16,-0.0034,0.0018
3.147e-03,0.14,0.12,-0.0034,-0.0086
3.149e-03,0.14,0.16,-0.001,0.0018
3.151e-03,0.14,0.1,-0.0022,-0.0086
3.153e-03,0.14,0.16,-0.0058,0.0018
3.155e-03,0.14,0.1,-0.0022,-0.0098
3.156e-03,0.14,0.16,-0.001,0.0014
3.158e-03,0.14,0.12,-0.0042,-0.0082
3.160e-03,0.14,0.16,-0.003,0.003
3.162e-03,0.14,0.12,-0.0038,-0.0078
3.164e-03,0.14,0.16,-0.0034,0.0026
3.166e-03,0.12,0.12,-0.0042,-0.0086
3.168e-03,0.14,0.16,-0.0026,0.0026
3.170e-03,0.14,0.1,-0.0026,-0.0074
3.172e-03,0.14,0.16,-0.0014,0.0022
3.174e-03,0.14,0.1,-0.0042,-0.0078
3.176e-03,0.14,0.16,-0.0078,0.0026
3.178e-03,0.14,0.1,-0.0026,-0.0078
3.180e-03,0.14,0.16,-0.005,0.0022
3.181e-03,0.14,0.1,0.0022,-0.0078
3.183e-03,0.14,0.16,-0.0018,0.003
3.185e-03,0.14,0.12,-0.0046,-0.0094
3.187e-03,0.14,0.16,-0.0026,0.0018
3.189e-03,0.14,0.1,-0.0026,-0.0094
3.191e-03,0.12,0.16,-0.0074,0.001
3.193e-03,0.12,0.12,-0.005,-0.0078
3.195e-03,0.14,0.16,-0.0034,0.003
3.197e-03,0.14,0.12,-0.0014,-0.0078
3.199e-03,0.14,0.16,-0.0034,0.003
3.201e-03,0.14,0.1,-0.0022,-0.0086
3.203e-03,0.14,0.16,-0.0054,0.0022
3.204e-03,0.14,0.1,-0.0006,-0.0082
3.206e-03,0.14,0.16,-0.0038,0.003
3.208e-03,0.12,0.1,-0.003,-0.0082
3.210e-03,0.14,0.16,-0.0038,0.0026
3.212e-03,0.14,0.1,-0.0002,-0.0074
3.214e-03,0.14,0.16,-0.0034,0.0022
3.216e-03,0.12,0.1,-0.0014,-0.0082
3.218e-03,0.12,0.16,-0.0018,0.0038
3.220e-03,0.14,0.1,-0.0046,-0.007
3.222e-03,0.12,0.16,-0.0034,0.0022
3.224e-03,0.12,0.1,-0.001,-0.0078
3.226e-03,0.14,0.16,-0.0022,0.0022
3.228e-03,0.14,0.1,-0.0026,-0.0086
3.229e-03,0.14,0.16,-0.001,0.0026
3.231e-03,0.12,0.1,-0.0002,-0.0086
3.233e-03,0.14,0.16,-0.0022,0.0022
3.235e-03,0.12,0.1,-0.0026,-0.0078
3.237e-03,0.14,0.16,-0.001,0.0022
3.239e-03,0.14,0.1,-0.0014,-0.0078
3.241e-03,0.12,0.16,-0.0042,0.0022
3.243e-03,0.14,0.1,-0.0022,-0.0082
3.245e-03,0.12,0.16,-0.003,0.003
3.247e-03,0.12,0.1,-0.003,-0.0086
3.249e-03,0.14,0.16,-0.0006,0.0038
3.251e-03,0.12,0.1,-0.0018,-0.0094
3.252e-03,0.14,0.16,-0.0026,0.0054
3.254e-03,0.14,0.1,-0.0042,-0.0062
3.256e-03,0.14,0.16,-0.0014,0.003
3.258e-03,0.12,0.1,-0.003,-0.007
3.260e-03,0.14,0.14,-0.005,0.0022
3.262e-03,0.14,0.1,-0.005,-0.009
3.264e-03,0.14,0.16,-0.0006,0.0038
3.266e-03,0.14,0.1,-0.0014,-0.0078
3.268e-03,0.14,0.16,-0.0038,0.0034
3.270e-03,0.14,0.1,-0.001,-0.0074
3.272e-03,0.14,0.16,-0.0018,0.0026
3.274e-03,0.14,0.1,-0.0026,-0.007
3.276e-03,0.14,0.16,-0.001,0.0038
3.277e-03,0.14,0.1,-0.0018,-0.0062
3.279e-03,0.14,0.16,-0.0006,0.0038
3.281e-03,0.14,0.1,-0.0018,-0.0086
3.283e-03,0.14,0.16,-0.0018,0.003
3.285e-03,0.12,0.1,-0.0006,-0.007
3.287e-03,0.14,0.16,0.0026,0.0054
3.289e-03,0.14,0.1,-0.0014,-0.0074
3.291e-03,0.14,0.16,-0.0026,0.0034
3.293e-03,0.12,0.1,-0.0022,-0.0066
3.295e-03,0.12,0.16,-0.0002,0.0046
3.297e-03,0.14,0.1,-0.001,-0.0054
3.299e-03,0.12,0.16,-0.0002,0.005
3.300e-03,0.12,0.1,-0.0042,-0.0062
3.302e-03,0.14,0.16,-0.0018,0.0042
3.304e-03,0.12,0.1,-0.0006,-0.0062
3.306e-03,0.12,0.14,-0.0014,0.0038
3.308e-03,0.12,0.1,-0.0018,-0.0054
3.310e-03,0.12,0.14,-0.0006,0.0046
3.312e-03,0.12,0.1,-0.003,-0.0062
3.314e-03,0.14,0.16,-0.0018,0.0034
3.316e-03,0.12,0.08,-0.0038,-0.0054
3.318e-03,0.12,0.16,-0.0018,0.005
3.320e-03,0.14,0.1,-0.0022,-0.0054
3.322e-03,0.12,0.14,0.0002,0.005
3.324e-03,0.14,0.1,-0.003,-0.0062
3.325e-03,0.12,0.16,0.0014,0.0054
3.327e-03,0.14,0.1,-0.0014,-0.0062
3.329e-03,0.12,0.14,0.0006,0.0038
3.331e-03,0.12,0.1,0.0002,-0.007
3.333e-03,0.14,0.14,0.0006,0.005
3.335e-03,0.12,0.1,-0.0002,-0.0058
3.337e-03,0.12,0.14,-0.0006,0.0046
3.339e-03,0.12,0.1,-0.001,-0.0058
3.341e-03,0.12,0.14,-0.001,0.0054
3.343e-03,0.14,0.1,0.0018,-0.0058
3.345e-03,0.12,0.14,-0.001,0.005
3.347e-03,0.12,0.1,-0.0002,-0.0062
3.348e-03,0.14,0.14,-0.0018,0.0054
3.350e-03,0.12,0.1,-0.0022,-0.0058
3.352e-03,0.12,0.14,-0.0018,0.0042
3.354e-03,0.12,0.1,-0.0022,-0.0066
3.356e-03,0.14,0.16,0.0006,0.0046
3.358e-03,0.12,0.1,-0.0022,-0.007
3.360e-03,0.12,0.14,0.001,0.0038
3.362e-03,0.12,0.1,0.0014,-0.0058
3.364e-03,0.14,0.14,0.0018,0.0042
3.366e-03,0.12,0.1,-0.0014,-0.0062
3.368e-03,0.14,0.16,-0.0014,0.0034
3.370e-03,0.14,0.1,-0.0002,-0.0066
3.372e-03,0.12,0.14,-0.0018,0.0046
3.373e-03,0.12,0.1,-0.0046,-0.0062
3.375e-03,0.12,0.14,-0.0002,0.003
3.377e-03,0.12,0.1,-0.001,-0.0062
3.379e-03,0.14,0.14,-0.001,0.0034
3.381e-03,0.14,0.1,-0.001,-0.0066
3.383e-03,0.12,0.14,-0.0002,0.005
3.385e-03,0.12,0.1,-0.0038,-0.0058
3.387e-03,0.12,0.14,-0.0002,0.0034
3.389e-03,0.12,0.1,-0.0022,-0.0074
3.391e-03,0.12,0.14,0.0002,0.0034
3.393e-03,0.1,0.08,-0.0038,-0.0062
3.395e-03,0.1,0.14,-0.003,0.0034
3.396e-03,0.12,0.1,-0.0002,-0.007
3.398e-03,0.12,0.14,-0.0006,0.0042
3.400e-03,0.12,0.1,-0.003,-0.0086
3.402e-03,0.12,0.14,-0.003,0.0046
3.404e-03,0.12,0.1,-0.0018,-0.0066
3.406e-03,0.12,0.16,-0.0018,0.0038
3.408e-03,0.12,0.1,-0.0026,-0.0066
3.410e-03,0.12,0.16,-0.0018,0.003
3.412e-03,0.12,0.1,0.0006,-0.0062
3.414e-03,0.12,0.14,-0.0034,0.0034
3.416e-03,0.12,0.1,-0.001,-0.0058
3.418e-03,0.12,0.14,-0.0034,0.003
3.420e-03,0.12,0.08,-0.0022,-0.007
3.421e-03,0.12,0.14,0.0006,0.003
3.423e-03,0.14,0.1,-0.0006,-0.007
3.425e-03,0.1,0.14,-0.0006,0.0046
3.427e-03,0.12,0.1,-0.0018,-0.007
3.429e-03,0.12,0.14,-0.0026,0.0034
3.431e-03,0.12,0.08,-0.0026,-0.0074
3.433e-03,0.12,0.14,-0.0022,0.0022
3.435e-03,0.12,0.08,-0.0006,-0.0078
3.437e-03,0.12,0.14,-0.0006,0.003
3.439e-03,0.12,0.1,-0.0038,-0.007
3.441e-03,0.12,0.14,-0.0018,0.0042
3.443e-03,0.14,0.1,-0.0026,-0.0078
3.445e-03,0.12,0.14,-0.0026,0.003
3.446e-03,0.12,0.08,-0.0018,-0.0074
3.448e-03,0.12,0.14,-0.003,0.003
3.450e-03,0.12,0.08,-0.0006,-0.0074
3.452e-03,0.12,0.14,-0.005,0.0018
3.454e-03,0.1,0.08,-0.0038,-0.0082
3.456e-03,0.12,0.14,-0.003,0.003
3.458e-03,0.12,0.08,-0.0026,-0.0078
3.460e-03,0.12,0.14,-0.0026,0.0026
3.462e-03,0.12,0.1,-0.0034,-0.007
3.464e-03,0.12,0.14,-0.0018,0.0022
3.466e-03,0.12,0.08,-0.0038,-0.0074
3.468e-03,0.1,0.14,-0.005,0.0018
3.469e-03,0.12,0.08,-0.0006,-0.0082
3.471e-03,0.1,0.14,-0.003,0.003
3.473e-03,0.12,0.08,-0.0014,-0.009
3.475e-03,0.1,0.14,-0.0042,0.0026
3.477e-03,0.12,0.08,-0.0034,-0.0074
3.479e-03,0.1,0.14,-0.0038,0.003
3.481e-03,0.14,0.08,-0.001,-0.0082
3.483e-03,0.12,0.14,-0.0022,0.005
3.485e-03,0.1,0.08,-0.0026,-0.0078
3.487e-03,0.12,0.14,-0.0034,0.0026
3.489e-03,0.12,0.08,-0.0018,-0.0078
3.491e-03,0.12,0.14,-0.0038,0.0034
3.493e-03,0.1,0.08,-0.0034,-0.0078
3.494e-03,0.12,0.14,-0.0014,0.0026
3.496e-03,0.14,0.08,0.001,-0.0074
3.498e-03,0.1,0.14,-0.0038,0.0034
3.500e-03,0.1,0.08,-0.001,-0.007
3.502e-03,0.12,0.14,-0.0006,0.003
3.504e-03,0.12,0.08,0.0002,-0.0078
3.506e-03,0.12,0.14,-0.0022,0.003
3.508e-03,0.12,0.08,-0.0014,-0.009
3.510e-03,0.12,0.14,-0.0018,0.0042
3.512e-03,0.12,0.08,-0.0014,-0.0074
3.514e-03,0.12,0.14,-0.003,0.0026
3.516e-03,0.12,0.08,-0.003,-0.009
3.517e-03,0.1,0.14,-0.003,0.0026
3.519e-03,0.12,0.08,-0.0026,-0.0062
3.521e-03,0.12,0.14,-0.0034,0.0022
3.523e-03,0.1,0.08,-0.0026,-0.0082
3.525e-03,0.12,0.14,-0.003,0.0022
3.527e-03,0.12,0.08,-0.0026,-0.0078
3.529e-03,0.12,0.14,-0.0014,0.0034
3.531e-03,0.12,0.08,-0.0018,-0.0074
3.533e-03,0.12,0.14,-0.0038,0.0026
3.535e-03,0.12,0.08,-0.0018,-0.0078
3.537e-03,0.1,0.14,-0.0014,0.003
3.539e-03,0.12,0.08,-0.0034,-0.0074
3.541e-03,0.12,0.14,-0.0042,0.0022
3.542e-03,0.12,0.08,-0.0042,-0.0082
3.544e-03,0.12,0.14,-0.0034,0.0046
3.546e-03,0.12,0.08,-0.0042,-0.0082
3.548e-03,0.1,0.14,0.001,0.0026
3.550e-03,0.1,0.08,-0.0002,-0.007
3.552e-03,0.12,0.14,-0.0022,0.003
3.554e-03,0.12,0.08,-0.0014,-0.0074
3.556e-03,0.12,0.14,-0.0018,0.0022
3.558e-03,0.12,0.08,0.0002,-0.0094
3.560e-03,0.1,0.14,-0.0006,0.003
3.562e-03,0.1,0.08,-0.0038,-0.0074
3.564e-03,0.1,0.14,-0.0034,0.003
3.565e-03,0.12,0.08,-0.001,-0.0074
3.567e-03,0.12,0.14,-0.003,0.0022
3.569e-03,0.12,0.08,-0.005,-0.0098
3.571e-03,0.1,0.14,-0.0038,0.003
3.573e-03,0.12,0.08,-0.0018,-0.0078
3.575e-03,0.1,0.14,-0.001,0.0038
3.577e-03,0.1,0.08,-0.0018,-0.0074
3.579e-03,0.1,0.14,-0.0026,0.0026
3.581e-03,0.1,0.08,-0.0034,-0.0078
3.583e-03,0.1,0.14,-0.0038,0.0026
3.585e-03,0.12,0.08,-0.0006,-0.0094
3.587e-03,0.12,0.14,-0.003,0.0034
3.589e-03,0.12,0.08,-0.0046,-0.007
3.590e-03,0.1,0.14,-0.0046,0.0038
3.592e-03,0.1,0.08,-0.0022,-0.0074
3.594e-03,0.12,0.14,-0.003,0.0038
3.596e-03,0.1,0.08,-0.0018,-0.0074
3.598e-03,0.1,0.14,-0.0018,0.0026
3.600e-03,0.12,0.08,-0.0018,-0.0086
3.602e-03,0.1,0.14,-0.0054,0.0018
3.604e-03,0.1,0.08,-0.0018,-0.0086
3.606e-03,0.12,0.14,-0.001,0.0022
3.608e-03,0.12,0.08,-0.0042,-0.0082
3.610e-03,0.12,0.14,-0.0022,0.0026
3.612e-03,0.12,0.08,-0.003,-0.0074
3.613e-03,0.12,0.14,-0.0018,0.0034
3.615e-03,0.12,0.08,-0.003,-0.0074
3.617e-03,0.12,0.14,-0.0022,0.0026
3.619e-03,0.12,0.08,-0.005,-0.0074
3.621e-03,0.1,0.14,-0.0054,0.0038
3.623e-03,0.1,0.08,-0.0034,-0.0074
3.625e-03,0.1,0.14,-0.0022,0.003
3.627e-03,0.1,0.08,-0.003,-0.0082
3.629e-03,0.1,0.14,-0.003,0.0038
3.631e-03,0.1,0.08,-0.001,-0.0082
3.633e-03,0.1,0.12,-0.0026,0.003
3.635e-03,0.1,0.08,0.0006,-0.0078
3.637e-03,0.12,0.14,-0.0046,0.003
3.638e-03,0.1,0.08,-0.0062,-0.0078
3.640e-03,0.1,0.12,-0.001,0.003
3.642e-03,0.1,0.08,-0.0026,-0.0066
3.644e-03,0.1,0.14,-0.0018,0.0026
3.646e-03,0.12,0.08,-0.0022,-0.007
3.648e-03,0.1,0.14,0.0002,0.0042
3.650e-03,0.12,0.08,-0.001,-0.007
3.652e-03,0.1,0.14,-0.0026,0.0034
3.654e-03,0.1,0.06,-0.0042,-0.0082
3.656e-03,0.1,0.12,-0.0014,0.003
3.658e-03,0.1,0.08,-0.0054,-0.0082
3.660e-03,0.1,0.12,0.001,0.0038
3.661e-03,0.1,0.08,-0.0018,-0.0082
3.663e-03,0.08,0.12,-0.001,0.003
3.665e-03,0.1,0.08,-0.0002,-0.0062
3.667e-03,0.1,0.12,-0.0038,0.0034
3.669e-03,0.1,0.08,-0.0046,-0.0078
3.671e-03,0.1,0.14,-0.0018,0.003
3.673e-03,0.1,0.08,-0.0006,-0.0066
3.675e-03,0.1,0.14,-0.0018,0.0038
3.677e-03,0.12,0.08,-0.0034,-0.007
3.679e-03,0.12,0.12,-0.0018,0.0034
3.681e-03,0.1,0.08,-0.0022,-0.007
3.683e-03,0.1,0.12,-0.0034,0.003
3.685e-03,0.1,0.06,-0.0006,-0.0082
3.686e-03,0.1,0.12,-0.0006,0.0042
3.688e-03,0.1,0.08,-0.0046,-0.007
3.690e-03,0.1,0.12,-0.0026,0.0042
3.692e-03,0.1,0.08,-0.0014,-0.0054
3.694e-03,0.1,0.12,-0.0018,0.0042
3.696e-03,0.1,0.08,-0.0026,-0.0058
3.698e-03,0.1,0.12,-0.0002,0.0046
3.700e-03,0.1,0.08,0.0002,-0.0062
3.702e-03,0.12,0.12,-0.0026,0.0042
3.704e-03,0.1,0.06,-0.001,-0.0062
3.706e-03,0.1,0.14,-0.0026,0.0038
3.708e-03,0.1,0.06,-0.0038,-0.0062
3.709e-03,0.1,0.12,-0.0014,0.0042
3.711e-03,0.1,0.08,-0.0018,-0.0062
3.713e-03,0.1,0.12,-0.0006,0.005
3.715e-03,0.1,0.08,-0.001,-0.0062
3.717e-03,0.1,0.12,-0.0002,0.005
3.719e-03,0.12,0.08,-0.0006,-0.0062
3.721e-03,0.1,0.14,-0.0026,0.003
3.723e-03,0.1,0.08,0.0006,-0.0058
3.725e-03,0.1,0.12,0.003,0.0034
3.727e-03,0.1,0.08,-0.0014,-0.0058
3.729e-03,0.1,0.12,0.0002,0.0042
3.731e-03,0.1,0.08,-0.0006,-0.007
3.733e-03,0.1,0.12,0.0014,0.0042
3.734e-03,0.1,0.08,0.0014,-0.0074
3.736e-03,0.1,0.12,-0.0002,0.0054
3.738e-03,0.1,0.06,-0.001,-0.0062
3.740e-03,0.1,0.12,-0.0006,0.0042
3.742e-03,0.1,0.08,-0.0022,-0.0054
3.744e-03,0.1,0.12,0.0006,0.0038
3.746e-03,0.1,0.06,-0.0002,-0.0054
3.748e-03,0.1,0.12,-0.0002,0.0054
3.750e-03,0.12,0.08,0.0002,-0.0046
3.752e-03,0.1,0.12,-0.0034,0.0058
3.754e-03,0.12,0.06,-0.0002,-0.0054
3.756e-03,0.1,0.12,-0.0006,0.0042
3.757e-03,0.1,0.06,-0.0002,-0.0062
3.759e-03,0.1,0.12,-0.0014,0.0046
3.761e-03,0.1,0.06,0.0022,-0.0042
3.763e-03,0.08,0.12,-0.0002,0.0062
3.765e-03,0.1,0.06,-0.0002,-0.0046
3.767e-03,0.1,0.12,0.0002,0.0066
3.769e-03,0.1,0.08,0.0018,-0.0058
3.771e-03,0.1,0.12,0.0026,0.0062
3.773e-03,0.1,0.06,-0.0002,-0.0046
3.775e-03,0.1,0.12,-0.0002,0.0062
3.777e-03,0.1,0.06,0.003,-0.0046
3.779e-03,0.1,0.12,-0.0002,0.0066
3.781e-03,0.1,0.06,0.0018,-0.0054
3.782e-03,0.08,0.12,0.0002,0.0062
3.784e-03,0.1,0.06,0.0018,-0.0038
3.786e-03,0.08,0.12,0.0006,0.0066
3.788e-03,0.1,0.06,0.0014,-0.0038
3.790e-03,0.1,0.12,0.0022,0.0058
3.792e-03,0.08,0.06,0.001,-0.0034
3.794e-03,0.08,0.12,0.001,0.007
3.796e-03,0.1,0.06,-0.0018,-0.0038
3.798e-03,0.1,0.12,-0.0006,0.0062
3.800e-03,0.08,0.06,0.0034,-0.0034
3.802e-03,0.1,0.12,-0.0002,0.0074
3.804e-03,0.1,0.08,0.0034,-0.003
3.805e-03,0.1,0.12,0.0026,0.0082
3.807e-03,0.1,0.06,-0.001,-0.0026
3.809e-03,0.1,0.12,0.001,0.0066
3.811e-03,0.08,0.06,0.0034,-0.0026
3.813e-03,0.1,0.12,0.0042,0.0074
3.815e-03,0.08,0.06,0.001,-0.0026
3.817e-03,0.1,0.12,0.003,0.009
3.819e-03,0.1,0.06,-0.0002,-0.0034
3.821e-03,0.1,0.12,0.0026,0.0078
3.823e-03,0.1,0.06,0.001,-0.0018
3.825e-03,0.1,0.12,0.003,0.0074
3.827e-03,0.1,0.06,0.0018,-0.0022
3.829e-03,0.1,0.12,0.0018,0.0082
3.830e-03,0.08,0.06,0.0022,-0.0026
3.832e-03,0.1,0.12,0.0042,0.0086
3.834e-03,0.1,0.06,0.003,-0.0022
3.836e-03,0.08,0.12,0.0018,0.0102
3.838e-03,0.08,0.06,0.0026,-0.0002
3.840e-03,0.1,0.12,0.0058,0.0086
3.842e-03,0.1,0.06,0.0074,-0.0006
3.844e-03,0.1,0.12,0.0054,0.0086
3.846e-03,0.08,0.06,0.0034,-0.0006
3.848e-03,0.08,0.12,0.0074,0.011
3.850e-03,0.1,0.06,0.0038,-0.0006
3.852e-03,0.1,0.12,0.003,0.0102
3.853e-03,0.1,0.06,0.0062,0.0006
3.855e-03,0.1,0.12,0.0046,0.0126
3.857e-03,0.1,0.06,0.0014,-0.0002
3.859e-03,0.08,0.12,0.0058,0.0114
3.861e-03,0.1,0.06,0.005,0.001
3.863e-03,0.08,0.12,0.0034,0.0118
3.865e-03,0.1,0.06,0.0074,0.001
3.867e-03,0.08,0.12,0.0082,0.013
3.869e-03,0.1,0.06,0.005,0.0018
3.871e-03,0.1,0.12,0.007,0.0114
3.873e-03,0.1,0.06,0.0062,0.0026
3.875e-03,0.1,0.12,0.0046,0.013
3.877e-03,0.1,0.06,0.0086,0.003
3.878e-03,0.08,0.12,0.0066,0.0118
3.880e-03,0.1,0.06,0.0074,0.003
3.882e-03,0.08,0.12,0.0094,0.0126
3.884e-03,0.08,0.06,0.0046,0.0038
3.886e-03,0.1,0.12,0.0078,0.0142
3.888e-03,0.08,0.06,0.0054,0.0026
3.890e-03,0.1,0.12,0.0102,0.015
3.892e-03,0.08,0.06,0.009,0.0038
3.894e-03,0.08,0.12,0.0078,0.015
3.896e-03,0.1,0.06,0.0094,0.0026
3.898e-03,0.1,0.12,0.009,0.0138
3.900e-03,0.1,0.06,0.0086,0.0026
3.901e-03,0.08,0.12,0.0054,0.0154
3.903e-03,0.08,0.06,0.0078,0.0038
3.905e-03,0.1,0.12,0.0098,0.015
3.907e-03,0.1,0.06,0.0098,0.0046
3.909e-03,0.08,0.12,0.0118,0.0154
3.911e-03,0.08,0.06,0.011,0.0034
3.913e-03,0.08,0.1,0.011,0.0142
3.915e-03,0.1,0.06,0.0082,0.0046
3.917e-03,0.1,0.12,0.0102,0.0142
3.919e-03,0.08,0.06,0.0106,0.0034
3.921e-03,0.08,0.12,0.011,0.0142
3.923e-03,0.08,0.06,0.009,0.0046
3.925e-03,0.1,0.12,0.0098,0.0138
3.926e-03,0.1,0.06,0.0102,0.0034
3.928e-03,0.08,0.12,0.0078,0.0146
3.930e-03,0.08,0.06,0.007,0.003
3.932e-03,0.08,0.12,0.0086,0.013
3.934e-03,0.1,0.06,0.009,0.003
3.936e-03,0.08,0.12,0.0086,0.013
3.938e-03,0.08,0.06,0.0066,0.003
3.940e-03,0.08,0.1,0.007,0.013
3.942e-03,0.08,0.06,0.005,0.0014
3.944e-03,0.1,0.12,0.0122,0.013
3.946e-03,0.1,0.06,0.0058,0.0006
3.948e-03,0.08,0.12,0.0082,0.013
3.949e-03,0.08,0.06,0.0066,0.0022
3.951e-03,0.1,0.1,0.0062,0.0118
3.953e-03,0.08,0.06,0.0042,0.0014
3.955e-03,0.1,0.12,0.007,0.0122
3.957e-03,0.08,0.06,0.007,0.0006
3.959e-03,0.1,0.12,0.007,0.0114
3.961e-03,0.1,0.06,0.0034,0.0002
3.963e-03,0.1,0.12,0.007,0.0102
3.965e-03,0.08,0.06,0.003,-0.001
3.967e-03,0.1,0.1,0.0022,0.0098
3.969e-03,0.08,0.06,0.0062,-0.0006
3.971e-03,0.08,0.1,0.0054,0.0102
3.973e-03,0.08,0.06,0.0034,-0.0006
3.974e-03,0.1,0.1,0.0046,0.009
3.976e-03,0.08,0.06,0.0038,-0.001
3.978e-03,0.1,0.1,0.0014,0.0086
3.980e-03,0.08,0.06,0.0046,-0.0014
3.982e-03,0.08,0.1,0.0038,0.0086
3.984e-03,0.08,0.06,-0.0002,-0.0018
3.986e-03,0.08,0.1,0.0002,0.0082
3.988e-03,0.06,0.06,0.0042,-0.0026
3.990e-03,0.1,0.1,0.0038,0.0078
3.992e-03,0.08,0.06,0.0042,-0.0046
3.994e-03,0.08,0.1,0.005,0.0086
3.996e-03,0.1,0.06,0.0014,-0.003
3.997e-03,0.1,0.12,0.003,0.0078
3.999e-03,0.08,0.06,0.0042,-0.0022
4.001e-03,0.08,0.1,0.001,0.007
4.003e-03,0.08,0.06,0.003,-0.003
4.005e-03,0.1,0.12,0.0026,0.007
4.007e-03,0.1,0.06,0.0014,-0.0034
4.009e-03,0.08,0.1,0.0006,0.0082
4.011e-03,0.1,0.06,0.0002,-0.003
4.013e-03,0.08,0.1,0.001,0.0078
4.015e-03,0.08,0.06,-0.0014,-0.0034
4.017e-03,0.1,0.1,0.0014,0.0074
4.019e-03,0.08,0.06,0.0022,-0.003
4.021e-03,0.08,0.1,-0.0002,0.0058
4.022e-03,0.1,0.06,0.0018,-0.0038
4.024e-03,0.08,0.1,0.0018,0.0066
4.026e-03,0.08,0.06,0.0018,-0.0042
4.028e-03,0.1,0.1,0.001,0.0066
4.030e-03,0.08,0.06,-0.0018,-0.0058
4.032e-03,0.08,0.1,0.0026,0.0062
4.034e-03,0.08,0.06,0.0014,-0.005
4.036e-03,0.08,0.12,0.0014,0.0058
4.038e-03,0.08,0.06,0.0006,-0.005
4.040e-03,0.08,0.1,0.001,0.0066
4.042e-03,0.08,0.04,0.0018,-0.0042
4.044e-03,0.08,0.1,0.0002,0.0054
4.045e-03,0.08,0.06,-0.0018,-0.005
4.047e-03,0.08,0.1,0.001,0.0062
4.049e-03,0.08,0.06,-0.001,-0.0034
4.051e-03,0.08,0.1,0.003,0.0054
4.053e-03,0.08,0.04,0.0018,-0.005
4.055e-03,0.08,0.1,0.001,0.0054
4.057e-03,0.08,0.04,0.001,-0.005
4.059e-03,0.08,0.1,-0.0018,0.0066
4.061e-03,0.08,0.06,0.0002,-0.0054
4.063e-03,0.08,0.1,0.001,0.0062
4.065e-03,0.08,0.06,-0.0018,-0.005
4.067e-03,0.1,0.1,-0.0006,0.005
4.069e-03,0.08,0.06,-0.0006,-0.0066
4.070e-03,0.08,0.12,-0.0006,0.0058
4.072e-03,0.08,0.04,-0.001,-0.0046
4.074e-03,0.08,0.1,-0.0002,0.0058
4.076e-03,0.08,0.04,0.0006,-0.0046
4.078e-03,0.08,0.1,-0.0002,0.0046
4.080e-03,0.08,0.04,-0.0002,-0.0038
4.082e-03,0.08,0.1,-0.0002,0.005
4.084e-03,0.08,0.04,-0.0018,-0.0046
4.086e-03,0.08,0.1,-0.0018,0.005
4.088e-03,0.08,0.06,0.0014,-0.005
4.090e-03,0.08,0.1,0.001,0.0042
4.092e-03,0.08,0.04,0.003,-0.0062
4.094e-03,0.08,0.1,0.0022,0.0046
4.095e-03,0.08,0.04,-0.0014,-0.005
4.097e-03,0.06,0.1,-0.0022,0.0042
4.099e-03,0.08,0.04,-0.0026,-0.0054
4.101e-03,0.08,0.1,0.001,0.0058
4.103e-03,0.08,0.04,-0.0018,-0.0058
4.105e-03,0.06,0.1,0.0002,0.0054
4.107e-03,0.08,0.04,0.0006,-0.0062
4.109e-03,0.08,0.1,0.001,0.0038
4.111e-03,0.08,0.04,-0.0014,-0.0062
4.113e-03,0.08,0.1,-0.0026,0.005
4.115e-03,0.08,0.06,-0.0018,-0.005
4.117e-03,0.08,0.1,0.0014,0.005
4.118e-03,0.06,0.04,-0.0002,-0.0054
4.120e-03,0.08,0.1,-0.003,0.0046
4.122e-03,0.08,0.04,-0.0002,-0.0062
4.124e-03,0.08,0.1,0.001,0.0042
4.126e-03,0.08,0.04,0.0002,-0.005
4.128e-03,0.08,0.1,0.001,0.0046
4.130e-03,0.06,0.04,-0.003,-0.005
4.132e-03,0.06,0.1,-0.005,0.0038
4.134e-03,0.06,0.04,-0.0006,-0.005
4.136e-03,0.06,0.1,-0.0034,0.0042
4.138e-03,0.08,0.04,-0.0026,-0.0058
4.140e-03,0.08,0.1,-0.0002,0.0058
4.142e-03,0.08,0.04,-0.0034,-0.0062
4.143e-03,0.08,0.1,0.0006,0.0046
4.145e-03,0.08,0.04,-0.0002,-0.005
4.147e-03,0.08,0.1,-0.0046,0.0046
4.149e-03,0.08,0.04,-0.0018,-0.005
4.151e-03,0.06,0.1,0.0002,0.0062
4.153e-03,0.08,0.04,-0.001,-0.005
4.155e-03,0.08,0.1,0.0006,0.0058
4.157e-03,0.06,0.04,0.0014,-0.0062
4.159e-03,0.06,0.1,0.0006,0.0042
4.161e-03,0.06,0.04,-0.0022,-0.0054
4.163e-03,0.06,0.1,-0.0002,0.0046
4.165e-03,0.08,0.04,0.0014,-0.0062
4.166e-03,0.08,0.1,0.0014,0.0046
4.168e-03,0.08,0.04,-0.0018,-0.0058
4.170e-03,0.06,0.1,-0.0034,0.0042
4.172e-03,0.06,0.04,0.0002,-0.0054
4.174e-03,0.06,0.1,-0.0002,0.0046
4.176e-03,0.1,0.04,0.0038,-0.0058
4.178e-03,0.08,0.1,-0.0002,0.0042
4.180e-03,0.08,0.04,-0.003,-0.005
4.182e-03,0.06,0.1,-0.0018,0.007
4.184e-03,0.08,0.04,-0.001,-0.0058
4.186e-03,0.08,0.1,-0.0022,0.0046
4.188e-03,0.08,0.04,-0.0018,-0.0058
4.190e-03,0.08,0.1,0.0006,0.0046
4.191e-03,0.08,0.04,0.0018,-0.0058
4.193e-03,0.08,0.1,-0.003,0.0058
4.195e-03,0.08,0.04,-0.0002,-0.007
4.197e-03,0.06,0.1,-0.0046,0.0042
4.199e-03,0.08,0.04,-0.0002,-0.005
4.201e-03,0.06,0.1,-0.0034,0.005
4.203e-03,0.08,0.04,-0.0002,-0.0066
4.205e-03,0.06,0.1,-0.0022,0.0054
4.207e-03,0.06,0.04,-0.0014,-0.0062
4.209e-03,0.06,0.08,-0.0022,0.0046
4.211e-03,0.08,0.04,0.0002,-0.0046
4.213e-03,0.06,0.08,-0.0034,0.0042
4.214e-03,0.06,0.04,-0.0006,-0.0042
4.216e-03,0.08,0.1,-0.0026,0.005
4.218e-03,0.06,0.04,-0.0002,-0.0042
4.220e-03,0.08,0.1,0.0026,0.005
4.222e-03,0.06,0.04,-0.0026,-0.0046
4.224e-03,0.08,0.1,0.0002,0.005
4.226e-03,0.08,0.04,-0.0014,-0.0046
4.228e-03,0.06,0.1,0.0002,0.0054
4.230e-03,0.06,0.04,-0.0002,-0.0046
4.232e-03,0.06,0.1,0.0006,0.005
4.234e-03,0.06,0.04,0.0002,-0.0066
4.236e-03,0.06,0.08,0.001,0.0054
4.238e-03,0.06,0.04,-0.001,-0.0042
4.239e-03,0.08,0.1,-0.0006,0.005
4.241e-03,0.08,0.04,-0.0022,-0.005
4.243e-03,0.06,0.08,-0.0018,0.0054
4.245e-03,0.06,0.04,-0.0022,-0.005
4.247e-03,0.06,0.1,0.0014,0.0054
4.249e-03,0.08,0.04,-0.0006,-0.0042
4.251e-03,0.06,0.1,-0.0014,0.0066
4.253e-03,0.06,0.04,-0.0002,-0.0066
4.255e-03,0.06,0.1,0.0014,0.0054
4.257e-03,0.06,0.04,-0.0002,-0.007
4.259e-03,0.06,0.08,0.0022,0.005
4.261e-03,0.08,0.02,0.0026,-0.0058
4.262e-03,0.08,0.1,-0.0022,0.0058
4.264e-03,0.06,0.04,-0.0022,-0.0046
4.266e-03,0.08,0.1,-0.0022,0.0066
4.268e-03,0.08,0.04,-0.0002,-0.0046
4.270e-03,0.08,0.1,0.003,0.0058
4.272e-03,0.08,0.04,0.0002,-0.0046
4.274e-03,0.06,0.08,0.0018,0.0062
4.276e-03,0.06,0.04,0.0022,-0.0042
4.278e-03,0.06,0.08,0.0018,0.0054
4.280e-03,0.06,0.04,0.001,-0.0046
4.282e-03,0.06,0.08,-0.0022,0.0062
4.284e-03,0.06,0.04,0.0006,-0.0046
4.286e-03,0.06,0.1,-0.0026,0.0054
4.287e-03,0.08,0.04,-0.0006,-0.0042
4.289e-03,0.08,0.1,0.001,0.0062
4.291e-03,0.08,0.04,0.0002,-0.0042
4.293e-03,0.06,0.08,0.0018,0.0062
4.295e-03,0.08,0.04,0.0014,-0.0046
4.297e-03,0.06,0.08,0.0014,0.0054
4.299e-03,0.06,0.04,0.0022,-0.003
4.301e-03,0.06,0.08,-0.0026,0.0066
4.303e-03,0.06,0.04,0.0002,-0.005
4.305e-03,0.06,0.08,-0.001,0.0062
4.307e-03,0.06,0.04,0.0014,-0.0038
4.309e-03,0.06,0.08,0.0014,0.0062
4.310e-03,0.08,0.04,0.0026,-0.0046
4.312e-03,0.08,0.08,0.0022,0.0066
4.314e-03,0.06,0.02,0.0002,-0.003
4.316e-03,0.06,0.08,0.0018,0.0066
4.318e-03,0.08,0.04,0.0014,-0.0042
4.320e-03,0.06,0.08,0.0018,0.0062
4.322e-03,0.06,0.04,0.001,-0.0034
4.324e-03,0.06,0.08,-0.0026,0.0074
4.326e-03,0.06,0.04,-0.0014,-0.003
4.328e-03,0.08,0.08,0.0026,0.0066
4.330e-03,0.06,0.04,0.0038,-0.003
4.332e-03,0.06,0.08,0.0014,0.007
4.334e-03,0.06,0.04,0.0014,-0.0042
4.335e-03,0.08,0.08,0.001,0.0062
4.337e-03,0.06,0.04,0.001,-0.003
4.339e-03,0.06,0.08,0.0018,0.0082
4.341e-03,0.06,0.02,0.0022,-0.0022
4.343e-03,0.06,0.08,0.0002,0.0078
4.345e-03,0.08,0.04,0.0018,-0.0026
4.347e-03,0.06,0.08,0.0054,0.0082
4.349e-03,0.06,0.04,0.0022,-0.0026
4.351e-03,0.06,0.08,0.003,0.0086
4.353e-03,0.06,0.04,0.001,-0.0018
4.355e-03,0.06,0.08,0.001,0.0078
4.357e-03,0.06,0.04,0.0026,-0.003
4.358e-03,0.06,0.08,0.003,0.0078
4.360e-03,0.08,0.04,0.0022,-0.0022
4.362e-03,0.06,0.08,0.0022,0.0078
4.364e-03,0.06,0.04,0.0046,-0.0018
4.366e-03,0.06,0.08,0.0046,0.0082
4.368e-03,0.06,0.02,0.005,-0.0018
4.370e-03,0.06,0.08,0.0026,0.0086
4.372e-03,0.06,0.04,0.003,-0.0014
4.374e-03,0.06,0.1,0.005,0.0082
4.376e-03,0.06,0.02,0.0042,-0.0014
4.378e-03,0.06,0.08,0.0034,0.009
4.380e-03,0.06,0.04,0.0018,-0.0002
4.382e-03,0.06,0.08,0.0046,0.0098
4.383e-03,0.06,0.04,0.0066,-0.001
4.385e-03,0.06,0.08,0.0074,0.009
4.387e-03,0.06,0.04,0.0046,0.0002
4.389e-03,0.08,0.08,0.0066,0.0102
4.391e-03,0.06,0.04,0.0042,0.0002
4.393e-03,0.06,0.08,0.0094,0.0122
4.395e-03,0.06,0.04,0.0054,0.0006
4.397e-03,0.04,0.08,0.0054,0.013
4.399e-03,0.06,0.02,0.007,0.001
4.401e-03,0.06,0.08,0.007,0.0118
4.403e-03,0.06,0.04,0.007,0.0018
4.405e-03,0.06,0.08,0.007,0.0114
4.406e-03,0.06,0.02,0.0082,0.0022
4.408e-03,0.04,0.08,0.0078,0.0126
4.410e-03,0.06,0.04,0.0062,0.0014
4.412e-03,0.08,0.08,0.0062,0.0126
4.414e-03,0.06,0.02,0.0034,0.003
4.416e-03,0.06,0.08,0.0078,0.013
4.418e-03,0.06,0.04,0.0058,0.001
4.420e-03,0.06,0.08,0.0086,0.0154
4.422e-03,0.06,0.04,0.0086,0.0022
4.424e-03,0.06,0.08,0.0074,0.0138
4.426e-03,0.06,0.02,0.0078,0.0022
4.428e-03,0.06,0.08,0.0094,0.0142
4.430e-03,0.04,0.02,0.011,0.0042
4.431e-03,0.04,0.08,0.009,0.0154
4.433e-03,0.06,0.02,0.0082,0.0046
4.435e-03,0.06,0.08,0.009,0.0162
4.437e-03,0.06,0.02,0.0134,0.0042
4.439e-03,0.06,0.08,0.0114,0.017
4.441e-03,0.04,0.02,0.0118,0.0046
4.443e-03,0.06,0.08,0.0118,0.0166
4.445e-03,0.06,0.04,0.011,0.0062
4.447e-03,0.06,0.08,0.0134,0.0162
4.449e-03,0.06,0.02,0.0106,0.0058
4.451e-03,0.06,0.08,0.0126,0.0182
4.453e-03,0.06,0.02,0.0138,0.007
4.454e-03,0.06,0.08,0.0118,0.017
4.456e-03,0.06,0.02,0.0126,0.0082
4.458e-03,0.06,0.08,0.0122,0.0174
4.460e-03,0.06,0.02,0.0106,0.0074
4.462e-03,0.06,0.08,0.0114,0.0194
4.464e-03,0.06,0.02,0.0122,0.0082
4.466e-03,0.06,0.08,0.011,0.0178
4.468e-03,0.06,0.02,0.0122,0.0086
4.470e-03,0.04,0.08,0.0146,0.0194
4.472e-03,0.06,0.02,0.0142,0.0086
4.474e-03,0.06,0.08,0.0138,0.0194
4.476e-03,0.06,0.02,0.0138,0.0098
4.478e-03,0.04,0.08,0.0142,0.021
4.479e-03,0.04,0.02,0.013,0.0098
4.481e-03,0.06,0.08,0.0142,0.0206
4.483e-03,0.06,0.02,0.0186,0.0102
4.485e-03,0.06,0.08,0.0154,0.0202
4.487e-03,0.04,0.02,0.017,0.0098
4.489e-03,0.06,0.08,0.0154,0.021
4.491e-03,0.06,0.02,0.0178,0.0102
4.493e-03,0.04,0.08,0.0146,0.0206
4.495e-03,0.04,0.02,0.015,0.0114
4.497e-03,0.06,0.08,0.0174,0.0214
4.499e-03,0.06,0.02,0.0142,0.011
4.501e-03,0.06,0.08,0.0162,0.0218
4.502e-03,0.06,0.02,0.0158,0.011
4.504e-03,0.04,0.08,0.0166,0.0214
4.506e-03,0.06,0.02,0.0158,0.0114
4.508e-03,0.06,0.08,0.015,0.0214
4.510e-03,0.04,0.02,0.0134,0.0122
4.512e-03,0.04,0.08,0.017,0.021
4.514e-03,0.04,0.02,0.015,0.0106
4.516e-03,0.04,0.08,0.0154,0.021
4.518e-03,0.06,0.02,0.0166,0.0086
4.520e-03,0.04,0.08,0.0158,0.021
4.522e-03,0.06,0.02,0.0134,0.0086
4.524e-03,0.06,0.08,0.0154,0.021
4.526e-03,0.06,0.02,0.0138,0.009
4.527e-03,0.06,0.08,0.0158,0.0218
4.529e-03,0.06,0.02,0.0142,0.011
4.531e-03,0.06,0.08,0.017,0.0194
4.533e-03,0.06,0.02,0.0166,0.0102
4.535e-03,0.04,0.08,0.0166,0.0202
4.537e-03,0.06,0.02,0.015,0.0098
4.539e-03,0.04,0.08,0.013,0.0202
4.541e-03,0.06,0.02,0.0146,0.0094
4.543e-03,0.04,0.08,0.0146,0.0194
4.545e-03,0.04,0.02,0.0162,0.0086
4.547e-03,0.06,0.08,0.0138,0.0202
4.549e-03,0.06,0.02,0.0134,0.0066
4.550e-03,0.04,0.08,0.0138,0.0178
4.552e-03,0.04,0.02,0.0126,0.009
4.554e-03,0.06,0.08,0.0138,0.019
4.556e-03,0.06,0.02,0.0134,0.0066
4.558e-03,0.04,0.08,0.0098,0.0182
4.560e-03,0.04,0.02,0.0102,0.0062
4.562e-03,0.04,0.06,0.011,0.017
4.564e-03,0.04,0.02,0.011,0.0062
4.566e-03,0.04,0.08,0.0126,0.017
4.568e-03,0.06,0.02,0.0126,0.0058
4.570e-03,0.04,0.06,0.0118,0.0154
4.572e-03,0.06,0.02,0.009,0.0062
4.574e-03,0.06,0.08,0.0134,0.017
4.575e-03,0.06,0.02,0.0098,0.005
4.577e-03,0.04,0.08,0.009,0.015
4.579e-03,0.06,0.02,0.0106,0.0046
4.581e-03,0.06,0.06,0.009,0.0166
4.583e-03,0.04,0,0.011,0.0042
4.585e-03,0.04,0.08,0.0114,0.0154
4.587e-03,0.04,0.02,0.0066,0.003
4.589e-03,0.04,0.08,0.011,0.0146
4.591e-03,0.04,0.02,0.0094,0.0042
4.593e-03,0.04,0.06,0.0098,0.0142
4.595e-03,0.04,0.02,0.0078,0.0022
4.597e-03,0.04,0.08,0.0078,0.0134
4.598e-03,0.06,0.02,0.0098,0.0018
4.600e-03,0.06,0.08,0.0086,0.0126
4.602e-03,0.04,0.02,0.0074,0.003
4.604e-03,0.04,0.06,0.0058,0.0138
4.606e-03,0.06,0.02,0.0074,0.0026
4.608e-03,0.04,0.06,0.0078,0.0118
4.610e-03,0.04,0,0.007,0.0018
4.612e-03,0.04,0.06,0.0082,0.0122
4.614e-03,0.04,0.02,0.0042,0.0006
4.616e-03,0.06,0.06,0.0086,0.0118
4.618e-03,0.06,0.02,0.0038,0.0006
4.620e-03,0.04,0.06,0.0066,0.0114
4.622e-03,0.04,0.02,0.0062,0.001
4.623e-03,0.06,0.08,0.0094,0.011
4.625e-03,0.04,0.02,0.005,0.0014
4.627e-03,0.04,0.08,0.0042,0.0114
4.629e-03,0.06,0.02,0.005,-0.0002
4.631e-03,0.06,0.06,0.0018,0.0122
4.633e-03,0.04,0.02,0.0066,0.001
4.635e-03,0.04,0.08,0.0054,0.0106
4.637e-03,0.06,0.02,0.0086,-0.0018
4.639e-03,0.04,0.06,0.0042,0.0102
4.641e-03,0.04,0.02,0.0054,-0.0014
4.643e-03,0.04,0.06,0.007,0.0122
4.645e-03,0.04,0,0.0022,-0.0018
4.646e-03,0.06,0.06,0.0026,0.0114
4.648e-03,0.04,0,0.0062,-0.0014
4.650e-03,0.04,0.06,0.0054,0.0106
4.652e-03,0.04,0.02,0.005,-0.0018
4.654e-03,0.04,0.06,0.005,0.0106
4.656e-03,0.04,0.02,0.0046,-0.0018
4.658e-03,0.04,0.06,0.0042,0.0086
4.660e-03,0.04,0,0.0034,-0.001
4.662e-03,0.04,0.06,0.0026,0.0078
4.664e-03,0.06,0.02,0.0078,-0.0014
4.666e-03,0.04,0.06,0.0026,0.009
4.668e-03,0.04,0.02,0.0002,-0.0018
4.670e-03,0.06,0.06,0.0022,0.0094
4.671e-03,0.04,0.02,0.0042,-0.0018
4.673e-03,0.06,0.06,0.0014,0.0078
4.675e-03,0.04,0.02,0.0034,-0.0022
4.677e-03,0.04,0.06,0.003,0.0086
4.679e-03,0.04,0,0.0018,-0.0026
4.681e-03,0.04,0.06,0.0022,0.0074
4.683e-03,0.04,0,0.0022,-0.003
4.685e-03,0.02,0.06,0.0058,0.0082
4.687e-03,0.06,0.02,0.005,-0.0022
4.689e-03,0.06,0.06,0.0058,0.0078
4.691e-03,0.04,0,0.003,-0.0022
4.693e-03,0.04,0.06,0.0062,0.0086
4.695e-03,0.04,0,0.0026,-0.0026
4.696e-03,0.04,0.06,0.0026,0.0086
4.698e-03,0.04,0,0.0038,-0.0018
4.700e-03,0.02,0.06,0.0038,0.007
4.702e-03,0.04,0,0.0034,-0.0034
4.704e-03,0.04,0.06,0.0026,0.0078
4.706e-03,0.04,0.02,0.003,-0.0022
4.708e-03,0.06,0.06,0.003,0.0078
4.710e-03,0.04,0,0.0022,-0.0022
4.712e-03,0.06,0.06,0.001,0.007
4.714e-03,0.04,0,0.0014,-0.0034
4.716e-03,0.04,0.06,0.005,0.0082
4.718e-03,0.04,0,0.0014,-0.0022
4.719e-03,0.04,0.06,0.003,0.0074
4.721e-03,0.04,0.02,0.0002,-0.0026
4.723e-03,0.04,0.06,-0.001,0.009
4.725e-03,0.04,0,0.001,-0.0026
4.727e-03,0.04,0.06,0.003,0.0078
4.729e-03,0.04,0,0.0018,-0.0038
4.731e-03,0.02,0.06,0.0026,0.0078
4.733e-03,0.04,0,0.0042,-0.0034
4.735e-03,0.04,0.06,0.0014,0.0074
4.737e-03,0.04,0,0.001,-0.0026
4.739e-03,0.04,0.06,0.0022,0.0074
4.741e-03,0.04,0,0.0026,-0.0046
4.743e-03,0.02,0.06,0.0038,0.0074
4.744e-03,0.02,0,0.0026,-0.003
4.746e-03,0.04,0.06,0.0026,0.0074
4.748e-03,0.04,0,-0.001,-0.003
4.750e-03,0.04,0.06,0.0022,0.007
4.752e-03,0.04,0,0.0002,-0.0026
4.754e-03,0.04,0.06,0.0038,0.0074
4.756e-03,0.04,0,0.0038,-0.0026
4.758e-03,0.04,0.06,0.0038,0.007
4.760e-03,0.04,0,-0.0022,-0.0038
4.762e-03,0.02,0.06,0.0014,0.0078
4.764e-03,0.04,0,0.0022,-0.0038
4.766e-03,0.04,0.06,0.003,0.0078
4.767e-03,0.04,0,0.0002,-0.003
4.769e-03,0.04,0.06,0.0014,0.0062
4.771e-03,0.04,0,-0.0018,-0.0034
4.773e-03,0.04,0.06,0.0034,0.0062
4.775e-03,0.04,0,0.001,-0.0026
4.777e-03,0.04,0.06,-0.0002,0.0074
4.779e-03,0.04,0,0.003,-0.005
4.781e-03,0.02,0.06,0.0014,0.0078
4.783e-03,0.04,0,-0.0002,-0.003
4.785e-03,0.04,0.06,0.003,0.007
4.787e-03,0.04,0,0.0034,-0.003
4.789e-03,0.04,0.06,-0.0006,0.0074
4.791e-03,0.04,0,0.001,-0.0042
4.792e-03,0.04,0.06,0.001,0.007
4.794e-03,0.02,0,0.0002,-0.0026
4.796e-03,0.04,0.06,0.0018,0.0066
4.798e-03,0.04,0,0.0026,-0.0034
4.800e-03,0.02,0.06,0.0034,0.0074
4.802e-03,0.02,0,0.0022,-0.003
4.804e-03,0.02,0.06,0.0018,0.0078
4.806e-03,0.02,0,0.0022,-0.003
4.808e-03,0.04,0.06,-0.0002,0.0082
4.810e-03,0.04,0,0.0014,-0.0034
4.812e-03,0.04,0.06,0.0022,0.0074
4.814e-03,0.04,0,0.0014,-0.0038
4.815e-03,0.04,0.06,0.0002,0.0074
4.817e-03,0.04,0,0.0026,-0.0042
4.819e-03,0.04,0.06,0.0014,0.0066
4.821e-03,0.06,0,0.001,-0.0034
4.823e-03,0.04,0.06,0.0022,0.0062
4.825e-03,0.02,0,0.0034,-0.0034
4.827e-03,0.02,0.06,0.0002,0.007
4.829e-03,0.04,0,0.0018,-0.003
4.831e-03,0.02,0.06,0.0022,0.007
4.833e-03,0.02,0,0.0018,-0.003
4.835e-03,0.04,0.06,0.0026,0.007
4.837e-03,0.04,0,-0.0014,-0.0034
4.839e-03,0.04,0.06,0.0014,0.0074
4.840e-03,0.04,0,0.001,-0.0026
4.842e-03,0.02,0.06,-0.0006,0.0082
4.844e-03,0.04,0,0.0034,-0.0026
4.846e-03,0.04,0.06,0.0034,0.0062
4.848e-03,0.04,0,0.001,-0.0026
4.850e-03,0.04,0.06,0.0046,0.0082
4.852e-03,0.04,0,0.0034,-0.0022
4.854e-03,0.02,0.06,0.0006,0.0082
4.856e-03,0.04,0,0.0042,-0.0018
4.858e-03,0.04,0.06,0.003,0.0078
4.860e-03,0.04,0,0.0002,-0.0022
4.862e-03,0.04,0.06,0.0034,0.009
4.863e-03,0.04,0,0.0022,-0.0034
4.865e-03,0.02,0.04,0.0026,0.0074
4.867e-03,0.02,0,0.0042,-0.0018
4.869e-03,0.02,0.06,0.001,0.0078
4.871e-03,0.02,0,-0.0002,-0.0034
4.873e-03,0.04,0.06,0.0042,0.0078
4.875e-03,0.04,0,0.0022,-0.0034
4.877e-03,0.04,0.06,0.0042,0.0078
4.879e-03,0.04,0,0.0038,-0.0034
4.881e-03,0.02,0.06,0.0042,0.0082
4.883e-03,0.02,0,0.0034,-0.0022
4.885e-03,0.02,0.06,0.0046,0.0074
4.887e-03,0.02,0,0.0038,-0.0018
4.888e-03,0.04,0.06,0.0034,0.0098
4.890e-03,0.02,0,0.0022,-0.0018
4.892e-03,0.04,0.06,0.0022,0.0082
4.894e-03,0.04,0,0.0018,-0.0018
4.896e-03,0.02,0.06,0.0034,0.0086
4.898e-03,0.02,0,0.0022,-0.0022
4.900e-03,0.02,0.06,0.0022,0.009
4.902e-03,0.02,-0.02,0.0042,-0.0014
4.904e-03,0.02,0.04,0.0042,0.009
4.906e-03,0.04,0,0.0054,-0.0006
4.908e-03,0.04,0.04,0.0038,0.009
4.910e-03,0.02,0,0.003,-0.0014
4.911e-03,0.02,0.06,0.0066,0.0106
4.913e-03,0.04,0,0.0034,-0.0018
4.915e-03,0.04,0.06,0.0042,0.0098
4.917e-03,0.02,0,0.005,-0.0002
4.919e-03,0.02,0.06,0.003,0.0098
4.921e-03,0.02,0,0.0062,-0.001
4.923e-03,0.04,0.04,0.0034,0.0094
4.925e-03,0.02,0,0.0054,-0.0006
4.927e-03,0.02,0.06,0.007,0.0098
4.929e-03,0.02,0,0.0074,0.0002
4.931e-03,0.02,0.04,0.0034,0.0102
4.933e-03,0.02,0,0.007,-0.0002
4.935e-03,0.02,0.04,0.0078,0.0102
4.936e-03,0.04,0,0.0026,-0.0006
4.938e-03,0.02,0.06,0.0054,0.0106
4.940e-03,0.04,-0.02,0.0058,0.0014
4.942e-03,0.02,0.06,0.0046,0.0114
4.944e-03,0.02,0,0.0054,0.0014
4.946e-03,0.02,0.04,0.0042,0.0114
4.948e-03,0.02,0,0.0046,0.0018
4.950e-03,0.02,0.04,0.0074,0.0102
4.952e-03,0,-0.02,0.0066,0.0014
4.954e-03,0.02,0.04,0.0074,0.0122
4.956e-03,0.02,-0.02,0.0078,0.001
4.958e-03,0.02,0.04,0.0046,0.0122
4.959e-03,0.02,0,0.0086,0.0026
4.961e-03,0.04,0.06,0.0054,0.0134
4.963e-03,0.02,-0.02,0.0054,0.003
4.965e-03,0.02,0.04,0.0086,0.0134
4.967e-03,0.02,0,0.0082,0.0034
4.969e-03,0.04,0.06,0.009,0.0142
4.971e-03,0.02,-0.02,0.0086,0.003
4.973e-03,0.02,0.04,0.007,0.0134
4.975e-03,0.02,-0.02,0.0078,0.0026
4.977e-03,0.02,0.04,0.0118,0.0146
4.979e-03,0.02,0,0.0102,0.003
4.981e-03,0.02,0.04,0.0078,0.0154
4.983e-03,0.02,-0.02,0.007,0.0042
4.984e-03,0.02,0.04,0.009,0.0154
4.986e-03,0.02,-0.02,0.009,0.0042
4.988e-03,0.02,0.04,0.0086,0.0154
4.990e-03,0.02,0,0.009,0.005
4.992e-03,0.02,0.04,0.0106,0.015
4.994e-03,0.02,-0.02,0.0114,0.0066
4.996e-03,0.02,0.06,0.0126,0.0162
4.998e-03,0.02,-0.02,0.0094,0.0054
5.000e-03,0.02,0.04,0.0118,0.0178
5.002e-03,0.02,-0.02,0.0094,0.0062
5.004e-03,0,0.04,0.0114,0.017
5.006e-03,0.02,0,0.0114,0.0078
5.007e-03,0.04,0.04,0.0118,0.017
5.009e-03,0.02,-0.02,0.0158,0.0074
5.011e-03,0.02,0.04,0.0114,0.0182
5.013e-03,0.02,-0.02,0.0142,0.0082
5.015e-03,0.02,0.04,0.0122,0.0182
5.017e-03,0.02,-0.02,0.0142,0.009
5.019e-03,0.02,0.04,0.0126,0.0202
5.021e-03,0.02,0,0.0146,0.0094
5.023e-03,0.02,0.04,0.0146,0.0202
5.025e-03,0.02,0,0.0146,0.0106
5.027e-03,0.02,0.04,0.0142,0.0206
5.029e-03,0.02,0,0.017,0.0102
5.031e-03,0.02,0.04,0.0182,0.0214
5.032e-03,0.02,-0.02,0.0146,0.0118
5.034e-03,0.02,0.04,0.0174,0.0226
5.036e-03,0.02,-0.02,0.0174,0.0118
5.038e-03,0.02,0.04,0.0174,0.0218
5.040e-03,0.02,-0.02,0.0178,0.013
5.042e-03,0.02,0.04,0.0174,0.0254
5.044e-03,0.02,-0.02,0.015,0.013
5.046e-03,0.02,0.04,0.0174,0.0238
5.048e-03,0.04,-0.02,0.0182,0.0134
5.050e-03,0.02,0.04,0.019,0.0246
5.052e-03,0.04,0,0.0206,0.0146
5.054e-03,0.04,0.04,0.0186,0.0254
5.055e-03,0.02,-0.02,0.0202,0.0162
5.057e-03,0.02,0.04,0.0226,0.0254
5.059e-03,0.02,-0.02,0.0222,0.017
5.061e-03,0.02,0.04,0.0214,0.0274
5.063e-03,0.02,-0.02,0.023,0.0142
5.065e-03,0.02,0.04,0.021,0.0266
5.067e-03,0.02,-0.02,0.0238,0.0178
5.069e-03,0.02,0.04,0.0238,0.0286
5.071e-03,0.02,-0.02,0.0238,0.0166
5.073e-03,0.02,0.04,0.0246,0.0274
5.075e-03,0.02,-0.02,0.025,0.0178
5.077e-03,0.02,0.04,0.0238,0.0298
5.079e-03,0.02,-0.02,0.0246,0.0186
5.080e-03,0.02,0.04,0.023,0.029
5.082e-03,0.02,-0.02,0.0218,0.0182
5.084e-03,0.02,0.04,0.0262,0.031
5.086e-03,0.02,-0.02,0.0262,0.0182
5.088e-03,0.02,0.04,0.0226,0.031
5.090e-03,0,-0.02,0.025,0.0194
5.092e-03,0,0.04,0.025,0.0298
5.094e-03,0.04,-0.02,0.025,0.0194
5.096e-03,0.02,0.04,0.0254,0.0298
5.098e-03,0.02,-0.02,0.0262,0.0198
5.100e-03,0.02,0.04,0.0258,0.0298
5.102e-03,0.02,-0.02,0.0262,0.0186
5.103e-03,0.02,0.04,0.0282,0.0294
5.105e-03,0,-0.02,0.0226,0.0186
5.107e-03,0.02,0.04,0.0246,0.0302
5.109e-03,0.02,-0.02,0.0218,0.0186
5.111e-03,0.02,0.04,0.0254,0.029
5.113e-03,0.02,-0.02,0.0258,0.0186
5.115e-03,0.02,0.04,0.0206,0.0274
5.117e-03,0.02,-0.02,0.021,0.0178
5.119e-03,0.02,0.04,0.0242,0.027
5.121e-03,0.02,-0.02,0.0214,0.0166
5.123e-03,0.02,0.04,0.0202,0.027
5.125e-03,0.02,-0.02,0.0218,0.0158
5.127e-03,0.02,0.04,0.0198,0.0278
5.128e-03,0.02,-0.02,0.023,0.0154
5.130e-03,0.02,0.04,0.0218,0.0266
5.132e-03,0.02,-0.02,0.0174,0.0142
5.134e-03,0,0.04,0.019,0.025
5.136e-03,0.02,-0.02,0.0202,0.0142
5.138e-03,0,0.04,0.0194,0.0238
5.140e-03,0.02,-0.02,0.015,0.0106
5.142e-03,0,0.04,0.0186,0.0226
5.144e-03,0.02,-0.02,0.0166,0.0122
5.146e-03,0.02,0.04,0.0174,0.0238
5.148e-03,0.02,-0.02,0.0194,0.0122
5.150e-03,0.02,0.04,0.0154,0.0222
5.151e-03,0.02,-0.02,0.0154,0.0102
5.153e-03,0,0.04,0.0166,0.0214
5.155e-03,0.02,-0.02,0.0162,0.0102
5.157e-03,0.02,0.04,0.0154,0.0218
5.159e-03,0.02,-0.02,0.015,0.0098
5.161e-03,0.02,0.04,0.0146,0.0202
5.163e-03,0.02,-0.02,0.0138,0.0086
5.165e-03,0,0.04,0.017,0.0186
5.167e-03,0,-0.02,0.0122,0.0082
5.169e-03,0.02,0.04,0.0134,0.0178
5.171e-03,0.02,-0.02,0.0134,0.0078
5.173e-03,0.02,0.04,0.013,0.0178
5.175e-03,0,-0.02,0.0134,0.0074
5.176e-03,0,0.04,0.0126,0.0178
5.178e-03,0,-0.02,0.011,0.0058
5.180e-03,0,0.04,0.0146,0.0174
5.182e-03,0.02,-0.02,0.0114,0.007
5.184e-03,0,0.04,0.0082,0.0158
5.186e-03,0,-0.02,0.0066,0.005
5.188e-03,0,0.04,0.0094,0.017
5.190e-03,0.02,-0.02,0.0106,0.0054
5.192e-03,0,0.02,0.0114,0.0154
5.194e-03,0,-0.02,0.009,0.0038
5.196e-03,0.02,0.04,0.009,0.015
5.198e-03,0,-0.02,0.009,0.0046
5.199e-03,0,0.04,0.007,0.015
5.201e-03,0,-0.02,0.0094,0.0042
5.203e-03,0.02,0.04,0.0102,0.0146
5.205e-03,0,-0.02,0.0098,0.0038
5.207e-03,0,0.04,0.009,0.0146
5.209e-03,0.02,-0.02,0.0062,0.0026
5.211e-03,0.02,0.02,0.0078,0.0138
5.213e-03,0,-0.02,0.0066,0.0022
5.215e-03,0.02,0.04,0.0078,0.013
5.217e-03,0,-0.02,0.0066,0.0026
5.219e-03,0.02,0.04,0.0086,0.0122
5.221e-03,0.02,-0.02,0.0066,0.0022
5.223e-03,0,0.04,0.0074,0.013
5.224e-03,0.02,-0.02,0.005,0.0018
5.226e-03,0,0.04,0.0078,0.0122
5.228e-03,0,-0.02,0.0074,0.0014
5.230e-03,0,0.04,0.0038,0.0122
5.232e-03,0.02,-0.02,0.005,0.001
5.234e-03,0.02,0.04,0.0078,0.0114
5.236e-03,0,-0.02,0.0066,0.0006
5.238e-03,0,0.04,0.0054,0.0126
5.240e-03,0,-0.02,0.0054,-0.0006
5.242e-03,0,0.04,0.0042,0.0114
5.244e-03,0,-0.02,0.0058,0.0006
5.246e-03,0.02,0.04,0.0066,0.0106
5.247e-03,0.02,-0.02,0.0062,-0.0006
5.249e-03,0.02,0.04,0.0058,0.011
5.251e-03,0,-0.04,0.0038,-0.0002
5.253e-03,0,0.04,0.0034,0.0102
5.255e-03,0.02,-0.02,0.005,0.0002
5.257e-03,0.02,0.04,0.0034,0.0098
5.259e-03,0,-0.02,0.007,-0.001
5.261e-03,0,0.02,0.0026,0.0098
5.263e-03,0,-0.04,0.0042,-0.0006
5.265e-03,0,0.02,0.0054,0.0102
5.267e-03,0,-0.02,0.0042,-0.0006
5.269e-03,-0.02,0.02,0.005,0.0102
5.271e-03,0,-0.02,0.0054,0.0002
5.272e-03,0,0.02,0.0094,0.0098
5.274e-03,0,-0.04,0.0022,-0.0018
5.276e-03,0.02,0.04,0.0062,0.0094
5.278e-03,0.02,-0.02,0.0042,-0.0006
5.280e-03,0.02,0.02,0.003,0.0102
5.282e-03,0,-0.02,0.0058,-0.001
5.284e-03,0.02,0.02,0.0022,0.011
5.286e-03,0.02,-0.02,0.003,-0.0014
5.288e-03,0.02,0.04,0.0034,0.0094
5.290e-03,0,-0.02,0.005,-0.0026
5.292e-03,0,0.02,0.0018,0.0086
5.294e-03,0.02,-0.02,0.0042,-0.0018
5.295e-03,0,0.02,0.0018,0.0086
5.297e-03,0.02,-0.04,0.0046,-0.003
5.299e-03,0.02,0.04,0.0038,0.0094
5.301e-03,0,-0.04,0.0054,-0.0022
5.303e-03,0,0.02,0.001,0.0086
5.305e-03,0,-0.02,0.0062,-0.0018
5.307e-03,0,0.02,0.0026,0.0074
5.309e-03,0,-0.04,0.0022,-0.0018
5.311e-03,0,0.02,0.0046,0.0074
5.313e-03,0,-0.02,0.0042,-0.0022
5.315e-03,0,0.02,0.0034,0.0086
5.317e-03,0.02,-0.02,0.0006,-0.0042
5.319e-03,0,0.02,0.0034,0.0078
5.320e-03,0,-0.02,0.0058,-0.0034
5.322e-03,0,0.02,0.0038,0.0078
5.324e-03,0,-0.02,-0.0006,-0.0022
5.326e-03,0,0.04,0.0018,0.0082
5.328e-03,0,-0.04,0.0018,-0.0018
5.330e-03,0,0.04,0.0014,0.0082
5.332e-03,0,-0.04,0.0046,-0.0018
5.334e-03,-0.02,0.02,0.003,0.009
5.336e-03,0,-0.04,0.003,-0.0018
5.338e-03,0,0.02,0.0026,0.0074
5.340e-03,0,-0.04,0.001,-0.0026
5.342e-03,0,0.02,0.0018,0.0078
5.344e-03,0.02,-0.04,0.0058,-0.0038
5.345e-03,0,0.02,0.0026,0.0078
5.347e-03,0.02,-0.04,0.001,-0.0022
5.349e-03,0,0.02,0.001,0.009
5.351e-03,0,-0.04,0.0014,-0.0042
5.353e-03,0,0.02,0.0002,0.0086
5.355e-03,0,-0.04,0.001,-0.0026
5.357e-03,0,0.02,0.0046,0.0082
5.359e-03,0,-0.04,0.0006,-0.0026
5.361e-03,-0.02,0.02,0.0018,0.0078
5.363e-03,-0.02,-0.04,0.0022,-0.0026
5.365e-03,0,0.02,0.0002,0.0074
5.367e-03,0,-0.04,0.0018,-0.0034
5.368e-03,0,0.02,0.0006,0.0082
5.370e-03,-0.02,-0.04,0.0018,-0.003
5.372e-03,0,0.02,0.0014,0.0082
5.374e-03,-0.02,-0.04,0.0026,-0.0038
5.376e-03,-0.02,0.02,0.0014,0.007
5.378e-03,0,-0.04,0.0014,-0.0026
5.380e-03,-0.02,0.02,-0.0022,0.0074
5.382e-03,0,-0.04,0.0038,-0.0026
5.384e-03,-0.02,0.02,0.001,0.0066
5.386e-03,0,-0.04,0.0002,-0.003
5.388e-03,-0.02,0.02,0.0046,0.0078
5.390e-03,0,-0.04,0.0006,-0.0038
5.392e-03,0,0.02,0.0018,0.0066
5.393e-03,0,-0.04,0.0018,-0.0026
5.395e-03,-0.02,0.02,-0.0002,0.0074
5.397e-03,0,-0.04,0.0042,-0.0026
5.399e-03,0,0.02,0.003,0.007
5.401e-03,-0.02,-0.04,0.0026,-0.0022
5.403e-03,0,0.02,0.0002,0.0086
5.405e-03,-0.02,-0.04,0.0038,-0.003
5.407e-03,-0.02,0.02,-0.0006,0.0074
5.409e-03,0,-0.04,0.003,-0.0022
5.411e-03,0,0.02,0.0022,0.0078
5.413e-03,-0.02,-0.04,0.001,-0.003
5.415e-03,0,0.02,0.0006,0.0078
5.416e-03,-0.02,-0.04,-0.0002,-0.003
5.418e-03,0,0.02,0.0038,0.0082
5.420e-03,0,-0.04,0.0034,-0.0022
5.422e-03,0,0.02,0.001,0.0082
5.424e-03,-0.02,-0.04,0.0026,-0.0026
5.426e-03,0,0.02,0.0034,0.007
5.428e-03,0,-0.04,0.0062,-0.0026
5.430e-03,-0.02,0.02,0.0022,0.0078
5.432e-03,0,-0.04,0.0034,-0.0026
5.434e-03,-0.02,0.02,0.0042,0.0086
5.436e-03,-0.02,-0.04,0.0038,-0.0042
5.438e-03,-0.02,0.02,0.0014,0.007
5.440e-03,-0.02,-0.04,0.003,-0.0026
5.441e-03,0,0.02,0.005,0.007
5.443e-03,0,-0.04,0.005,-0.003
5.445e-03,0,0.02,0.0022,0.0086
5.447e-03,0,-0.04,0.0018,-0.003
5.449e-03,0,0.02,0.0026,0.0082
5.451e-03,-0.02,-0.04,-0.001,-0.0018
5.453e-03,0,0.02,0.0038,0.0082
5.455e-03,0,-0.04,0.0038,-0.0026
5.457e-03,0,0.02,0.005,0.0086
5.459e-03,0,-0.04,0.007,-0.0026
5.461e-03,0,0.02,0.0042,0.0094
5.463e-03,-0.02,-0.04,0.0026,-0.0014
5.464e-03,0,0.02,0.0058,0.0082
5.466e-03,0,-0.04,0.0042,-0.0018
5.468e-03,-0.02,0.02,0.0034,0.0078
5.470e-03,0,-0.04,0.0062,-0.0022
5.472e-03,-0.02,0.02,0.003,0.0078
5.474e-03,0,-0.04,0.0026,-0.0014
5.476e-03,0,0.02,0.0046,0.0086
5.478e-03,0,-0.04,0.0022,-0.0022
5.480e-03,-0.02,0.02,0.0062,0.009
5.482e-03,-0.02,-0.04,0.0046,-0.0018
5.484e-03,0,0.02,0.0002,0.009
5.486e-03,0,-0.04,0.0034,-0.001
5.488e-03,0,0.02,0.005,0.009
5.489e-03,-0.02,-0.04,0.0038,-0.0014
5.491e-03,-0.02,0.02,0.0042,0.0094
5.493e-03,0,-0.04,0.0042,-0.001
5.495e-03,0,0.02,0.001,0.0086
5.497e-03,-0.02,-0.04,0.0038,-0.001
5.499e-03,-0.02,0.02,0.0022,0.0098
5.501e-03,-0.02,-0.04,0.0046,-0.0006
5.503e-03,-0.02,0.02,0.0034,0.0114
5.505e-03,0,-0.04,0.0038,-0.0002
5.507e-03,0,0.02,0.003,0.0094
5.509e-03,-0.02,-0.04,0.0038,-0.001
5.511e-03,0,0.02,0.0074,0.011
5.512e-03,0,-0.04,0.0058,-0.001
5.514e-03,-0.02,0,0.0026,0.0102
5.516e-03,-0.02,-0.04,0.0058,0.0006
5.518e-03,-0.02,0.02,0.0062,0.0118
5.520e-03,0,-0.04,0.007,0.0006
5.522e-03,-0.02,0.02,0.0054,0.0106
5.524e-03,-0.02,-0.04,0.0058,0.0014
5.526e-03,-0.02,0.02,0.0058,0.0118
5.528e-03,-0.02,-0.04,0.0054,0.0006
5.530e-03,-0.02,0.02,0.0058,0.0114
5.532e-03,-0.02,-0.04,0.0062,0.001
5.534e-03,-0.02,0.02,0.0034,0.0122
5.536e-03,-0.02,-0.04,0.0058,0.0014
5.537e-03,-0.02,0.02,0.0054,0.013
5.539e-03,-0.02,-0.04,0.0062,0.0014
5.541e-03,-0.02,0.02,0.0074,0.0114
5.543e-03,0,-0.04,0.0082,0.0018
5.545e-03,0,0.02,0.0074,0.0138
5.547e-03,-0.02,-0.04,0.0058,0.0022
5.549e-03,-0.02,0.02,0.0086,0.013
5.551e-03,-0.02,-0.04,0.0062,0.0026
5.553e-03,-0.02,0,0.0086,0.0126
5.555e-03,-0.02,-0.04,0.0094,0.0042
5.557e-03,0,0.02,0.011,0.0142
5.559e-03,0,-0.04,0.0118,0.0042
5.560e-03,-0.02,0.02,0.0106,0.0138
5.562e-03,-0.02,-0.04,0.0114,0.005
5.564e-03,0,0.02,0.0086,0.0142
5.566e-03,-0.02,-0.04,0.0082,0.0042
5.568e-03,0,0,0.0086,0.0154
5.570e-03,-0.02,-0.04,0.0102,0.0046
5.572e-03,-0.02,0,0.015,0.0154
5.574e-03,-0.02,-0.04,0.0086,0.005
5.576e-03,-0.02,0,0.013,0.0162
5.578e-03,0,-0.06,0.0122,0.0066
5.580e-03,-0.02,0,0.0142,0.017
5.582e-03,0,-0.04,0.0126,0.0078
5.584e-03,-0.02,0.02,0.0142,0.0186
5.585e-03,-0.02,-0.06,0.0114,0.0078
5.587e-03,-0.02,0,0.0158,0.019
5.589e-03,-0.02,-0.04,0.0142,0.0094
5.591e-03,0,0.02,0.013,0.0186
5.593e-03,-0.02,-0.06,0.0146,0.0102
5.595e-03,-0.02,0,0.0158,0.0198
5.597e-03,0,-0.04,0.0146,0.0098
5.599e-03,-0.02,0,0.0162,0.0214
5.601e-03,-0.02,-0.04,0.015,0.0106
5.603e-03,-0.02,0,0.0162,0.0206
5.605e-03,-0.02,-0.06,0.017,0.011
5.607e-03,-0.02,0,0.0166,0.0222
5.608e-03,-0.02,-0.04,0.0166,0.0126
5.610e-03,0,0.02,0.0178,0.0226
5.612e-03,-0.02,-0.04,0.0194,0.0126
5.614e-03,0,0,0.0166,0.0242
5.616e-03,-0.02,-0.06,0.0194,0.0142
5.618e-03,-0.04,0,0.019,0.0242

