Model,DPO2002B
Firmware Version,1.52

Point Format,Y,,,
Horizontal Units,S,,,
Horizontal Scale,0.001,,,
Sample Interval,1.92012e-06,,,
Filter Frequency,7e+07,,,
Record Length,5208,,,
Gating,0.0% to 100.0%,,0.0% to 100.0%,
Probe Attenuation,1,,1,
Vertical Units,V,,V,
Vertical Offset,0,,0,
Vertical Scale,0.5,,0.02,
Label,,,,
TIME,CH1,CH1 Peak Detect,CH2,CH2 Peak Detect
-4.380e-03,-0.16,-0.18,-0.002,-0.006
-4.378e-03,-0.16,-0.12,-0.0028,0.006
-4.376e-03,-0.16,-0.18,0.002,-0.0052
-4.374e-03,-0.14,-0.12,0.002,0.0052
-4.372e-03,-0.16,-0.2,0.002,-0.0068
-4.370e-03,-0.16,-0.12,0.0012,0.006
-4.368e-03,-0.18,-0.2,-0.000400001,-0.006
-4.367e-03,-0.16,-0.14,0.002,0.006
-4.365e-03,-0.16,-0.18,0.000399999,-0.0044
-4.363e-03,-0.18,-0.14,-0.000400001,0.006
-4.361e-03,-0.16,-0.2,0.002,-0.0044
-4.359e-03,-0.18,-0.14,0.0012,0.0068
-4.357e-03,-0.16,-0.2,0.0012,-0.0044
-4.355e-03,-0.18,-0.14,0.000399999,0.006
-4.353e-03,-0.16,-0.2,0.0012,-0.0036
-4.351e-03,-0.16,-0.14,0.0012,0.0068
-4.349e-03,-0.16,-0.2,0.0036,-0.0036
-4.347e-03,-0.16,-0.14,0.002,0.0076
-4.345e-03,-0.18,-0.2,0.0036,-0.0028
-4.344e-03,-0.16,-0.14,0.0012,0.0068
-4.342e-03,-0.16,-0.2,0.0036,-0.002
-4.340e-03,-0.16,-0.14,0.0036,0.0092
-4.338e-03,-0.16,-0.2,0.0028,-0.000400001
-4.336e-03,-0.18,-0.14,0.0036,0.0092
-4.334e-03,-0.16,-0.2,0.0068,-0.000400001
-4.332e-03,-0.16,-0.14,0.0036,0.01
-4.330e-03,-0.16,-0.2,0.0052,0.0012
-4.328e-03,-0.16,-0.14,0.0068,0.0116
-4.326e-03,-0.18,-0.2,0.006,0.000399999
-4.324e-03,-0.18,-0.14,0.0052,0.0108
-4.322e-03,-0.18,-0.2,0.0044,0.000399999
-4.320e-03,-0.16,-0.14,0.0052,0.0116
-4.319e-03,-0.16,-0.2,0.0076,0.000399999
-4.317e-03,-0.16,-0.14,0.006,0.0116
-4.315e-03,-0.2,-0.2,0.0076,0.000399999
-4.313e-03,-0.18,-0.14,0.0084,0.01
-4.311e-03,-0.16,-0.2,0.0076,-0.002
-4.309e-03,-0.16,-0.14,0.0076,0.0116
-4.307e-03,-0.16,-0.2,0.0068,0.000399999
-4.305e-03,-0.18,-0.14,0.0052,0.0116
-4.303e-03,-0.18,-0.2,0.0076,0.000399999
-4.301e-03,-0.16,-0.16,0.0076,0.01
-4.299e-03,-0.18,-0.2,0.0068,0.000399999
-4.297e-03,-0.18,-0.16,0.002,0.0124
-4.296e-03,-0.16,-0.2,0.0036,0.0012
-4.294e-03,-0.18,-0.14,0.0036,0.0132
-4.292e-03,-0.18,-0.2,0.006,0.002
-4.290e-03,-0.16,-0.16,0.0068,0.0132
-4.288e-03,-0.18,-0.2,0.0084,0.0028
-4.286e-03,-0.18,-0.16,0.0108,0.014
-4.284e-03,-0.18,-0.22,0.0092,0.0036
-4.282e-03,-0.18,-0.16,0.0084,0.0148
-4.280e-03,-0.18,-0.2,0.0108,0.0044
-4.278e-03,-0.18,-0.14,0.0084,0.0164
-4.276e-03,-0.18,-0.2,0.0108,0.0068
-4.274e-03,-0.18,-0.16,0.0132,0.0164
-4.272e-03,-0.18,-0.22,0.0156,0.0068
-4.271e-03,-0.18,-0.16,0.014,0.018
-4.269e-03,-0.18,-0.22,0.0156,0.0092
-4.267e-03,-0.18,-0.16,0.0156,0.0188
-4.265e-03,-0.18,-0.22,0.0148,0.0108
-4.263e-03,-0.18,-0.16,0.0196,0.0212
-4.261e-03,-0.18,-0.22,0.0196,0.0132
-4.259e-03,-0.2,-0.16,0.0196,0.0252
-4.257e-03,-0.2,-0.22,0.0188,0.0156
-4.255e-03,-0.18,-0.16,0.0212,0.0284
-4.253e-03,-0.2,-0.22,0.0252,0.0188
-4.251e-03,-0.18,-0.16,0.0236,0.03
-4.249e-03,-0.18,-0.22,0.0308,0.0236
-4.248e-03,-0.2,-0.16,0.034,0.0364
-4.246e-03,-0.18,-0.22,0.0348,0.0284
-4.244e-03,-0.18,-0.16,0.0372,0.0396
-4.242e-03,-0.2,-0.22,0.0396,0.0324
-4.240e-03,-0.18,-0.16,0.0436,0.0468
-4.238e-03,-0.2,-0.22,0.0492,0.0404
-4.236e-03,-0.2,-0.16,0.05,0.0532
-4.234e-03,-0.18,-0.22,0.0508,0.0468
-4.232e-03,-0.2,-0.16,0.0588,0.062
-4.230e-03,-0.2,-0.22,0.0652,0.0564
-4.228e-03,-0.2,-0.16,0.0668,0.0716
-4.226e-03,-0.18,-0.22,0.074,0.0644
-4.224e-03,-0.2,-0.16,0.0732,0.078
-4.223e-03,-0.2,-0.24,0.0796,0.0708
-4.221e-03,-0.2,-0.18,0.0804,0.0852
-4.219e-03,-0.2,-0.22,0.0804,0.0756
-4.217e-03,-0.2,-0.18,0.0852,0.0876
-4.215e-03,-0.2,-0.22,0.082,0.0772
-4.213e-03,-0.18,-0.16,0.082,0.0876
-4.211e-03,-0.2,-0.24,0.0804,0.0732
-4.209e-03,-0.2,-0.18,0.078,0.086
-4.207e-03,-0.2,-0.24,0.074,0.0668
-4.205e-03,-0.2,-0.18,0.07,0.0796
-4.203e-03,-0.2,-0.22,0.0628,0.0572
-4.201e-03,-0.2,-0.18,0.0636,0.0732
-4.200e-03,-0.2,-0.24,0.0564,0.05
-4.198e-03,-0.2,-0.16,0.0548,0.066
-4.196e-03,-0.22,-0.24,0.0484,0.0428
-4.194e-03,-0.2,-0.18,0.046,0.058
-4.192e-03,-0.2,-0.24,0.0428,0.0356
-4.190e-03,-0.22,-0.18,0.038,0.0516
-4.188e-03,-0.2,-0.24,0.0372,0.03
-4.186e-03,-0.2,-0.18,0.03,0.0428
-4.184e-03,-0.2,-0.24,0.03,0.0244
-4.182e-03,-0.18,-0.18,0.0284,0.0364
-4.180e-03,-0.22,-0.24,0.0252,0.0204
-4.178e-03,-0.2,-0.18,0.0244,0.0316
-4.176e-03,-0.2,-0.24,0.0236,0.0156
-4.175e-03,-0.2,-0.18,0.0204,0.0292
-4.173e-03,-0.2,-0.24,0.0196,0.0148
-4.171e-03,-0.2,-0.18,0.018,0.026
-4.169e-03,-0.22,-0.24,0.018,0.01
-4.167e-03,-0.2,-0.18,0.0148,0.0228
-4.165e-03,-0.2,-0.24,0.014,0.0084
-4.163e-03,-0.22,-0.18,0.014,0.0196
-4.161e-03,-0.22,-0.24,0.014,0.0076
-4.159e-03,-0.2,-0.18,0.0124,0.0188
-4.157e-03,-0.22,-0.24,0.0108,0.006
-4.155e-03,-0.2,-0.18,0.0076,0.0156
-4.153e-03,-0.22,-0.24,0.0092,0.0036
-4.152e-03,-0.22,-0.18,0.0092,0.0156
-4.150e-03,-0.2,-0.24,0.0068,0.002
-4.148e-03,-0.22,-0.18,0.006,0.0124
-4.146e-03,-0.22,-0.26,0.0068,0.0012
-4.144e-03,-0.22,-0.18,0.006,0.0124
-4.142e-03,-0.22,-0.24,0.0076,0.000399999
-4.140e-03,-0.2,-0.2,0.006,0.0116
-4.138e-03,-0.22,-0.24,0.0044,-0.000400001
-4.136e-03,-0.22,-0.18,0.0028,0.01
-4.134e-03,-0.22,-0.24,0.0036,-0.002
-4.132e-03,-0.22,-0.2,0.002,0.0092
-4.130e-03,-0.22,-0.24,0.006,-0.0012
-4.128e-03,-0.22,-0.2,0.0012,0.0084
-4.127e-03,-0.22,-0.24,0.0012,-0.002
-4.125e-03,-0.24,-0.2,0.0036,0.0084
-4.123e-03,-0.22,-0.26,0.0052,-0.002
-4.121e-03,-0.22,-0.2,0.0036,0.0076
-4.119e-03,-0.22,-0.26,0.0012,-0.002
-4.117e-03,-0.22,-0.2,0.0036,0.0084
-4.115e-03,-0.22,-0.26,0.002,-0.0028
-4.113e-03,-0.22,-0.2,-0.000400001,0.0076
-4.111e-03,-0.22,-0.26,0.0012,-0.0044
-4.109e-03,-0.24,-0.2,0.0012,0.0084
-4.107e-03,-0.24,-0.26,0.000399999,-0.0044
-4.105e-03,-0.22,-0.2,0.0012,0.0068
-4.104e-03,-0.22,-0.26,0.0036,-0.0044
-4.102e-03,-0.22,-0.2,0.002,0.0068
-4.100e-03,-0.24,-0.26,-0.000400001,-0.0036
-4.098e-03,-0.24,-0.2,-0.000400001,0.0052
-4.096e-03,-0.22,-0.26,0.0036,-0.0044
-4.094e-03,-0.22,-0.2,0.000399999,0.006
-4.092e-03,-0.22,-0.26,0.002,-0.0044
-4.090e-03,-0.24,-0.2,-0.0028,0.006
-4.088e-03,-0.22,-0.26,0.000399999,-0.0052
-4.086e-03,-0.22,-0.2,-0.0012,0.0052
-4.084e-03,-0.22,-0.26,-0.002,-0.006
-4.082e-03,-0.24,-0.2,-0.002,0.006
-4.080e-03,-0.24,-0.26,-0.0012,-0.0052
-4.079e-03,-0.22,-0.2,0.0012,0.0052
-4.077e-03,-0.22,-0.26,-0.000400001,-0.0044
-4.075e-03,-0.24,-0.2,0.002,0.0044
-4.073e-03,-0.24,-0.26,-0.000400001,-0.0052
-4.071e-03,-0.24,-0.2,-0.002,0.0052
-4.069e-03,-0.24,-0.26,-0.0012,-0.0052
-4.067e-03,-0.24,-0.2,-0.000400001,0.006
-4.065e-03,-0.24,-0.26,0.002,-0.006
-4.063e-03,-0.24,-0.22,0.0012,0.0036
-4.061e-03,-0.24,-0.26,0.000399999,-0.006
-4.059e-03,-0.24,-0.22,-0.002,0.0044
-4.057e-03,-0.24,-0.28,-0.0012,-0.0068
-4.055e-03,-0.24,-0.22,-0.000400001,0.0044
-4.054e-03,-0.24,-0.28,-0.000400001,-0.0068
-4.052e-03,-0.24,-0.22,-0.000400001,0.0044
-4.050e-03,-0.24,-0.28,0.000399999,-0.0052
-4.048e-03,-0.26,-0.22,-0.0012,0.0044
-4.046e-03,-0.24,-0.28,-0.0028,-0.006
-4.044e-03,-0.26,-0.22,-0.002,0.0036
-4.042e-03,-0.24,-0.28,-0.0012,-0.0052
-4.040e-03,-0.24,-0.22,-0.0012,0.0036
-4.038e-03,-0.24,-0.28,-0.0036,-0.006
-4.036e-03,-0.24,-0.22,-0.0044,0.0036
-4.034e-03,-0.24,-0.28,-0.000400001,-0.0052
-4.032e-03,-0.26,-0.22,-0.0012,0.006
-4.031e-03,-0.24,-0.28,-0.0012,-0.006
-4.029e-03,-0.24,-0.22,-0.002,0.0036
-4.027e-03,-0.24,-0.28,-0.000400001,-0.006
-4.025e-03,-0.26,-0.22,-0.0012,0.0036
-4.023e-03,-0.24,-0.28,-0.0012,-0.006
-4.021e-03,-0.24,-0.22,-0.0012,0.0044
-4.019e-03,-0.26,-0.28,-0.000400001,-0.0076
-4.017e-03,-0.26,-0.22,-0.0068,0.0036
-4.015e-03,-0.24,-0.28,-0.0028,-0.0068
-4.013e-03,-0.26,-0.24,-0.0052,0.0036
-4.011e-03,-0.26,-0.28,-0.0036,-0.0068
-4.009e-03,-0.24,-0.24,-0.002,0.0036
-4.007e-03,-0.24,-0.28,0.002,-0.006
-4.006e-03,-0.26,-0.22,-0.000400001,0.0044
-4.004e-03,-0.24,-0.3,-0.002,-0.006
-4.002e-03,-0.26,-0.22,-0.0012,0.0044
-4.000e-03,-0.24,-0.28,0.000399999,-0.0068
-3.998e-03,-0.26,-0.22,-0.002,0.0036
-3.996e-03,-0.26,-0.28,-0.0044,-0.006
-3.994e-03,-0.26,-0.22,-0.002,0.0036
-3.992e-03,-0.26,-0.28,-0.002,-0.0084
-3.990e-03,-0.24,-0.24,-0.002,0.0036
-3.988e-03,-0.26,-0.3,-0.0028,-0.0068
-3.986e-03,-0.26,-0.22,-0.0052,0.0028
-3.984e-03,-0.26,-0.3,-0.0012,-0.0068
-3.983e-03,-0.28,-0.24,-0.0036,0.0028
-3.981e-03,-0.26,-0.28,-0.002,-0.0076
-3.979e-03,-0.26,-0.24,-0.006,0.0028
-3.977e-03,-0.26,-0.28,-0.002,-0.0068
-3.975e-03,-0.26,-0.24,-0.0012,0.0036
-3.973e-03,-0.26,-0.28,-0.002,-0.0068
-3.971e-03,-0.26,-0.24,-0.000400001,0.0036
-3.969e-03,-0.26,-0.3,-0.0028,-0.0068
-3.967e-03,-0.26,-0.24,-0.000400001,0.0028
-3.965e-03,-0.26,-0.3,-0.0052,-0.0084
-3.963e-03,-0.26,-0.24,-0.000400001,0.0036
-3.961e-03,-0.26,-0.3,-0.0012,-0.0084
-3.959e-03,-0.26,-0.24,-0.0036,0.0044
-3.958e-03,-0.26,-0.3,-0.0036,-0.0068
-3.956e-03,-0.24,-0.24,-0.0012,0.0036
-3.954e-03,-0.26,-0.3,0.000399999,-0.0076
-3.952e-03,-0.26,-0.24,-0.000400001,0.0036
-3.950e-03,-0.26,-0.3,-0.0028,-0.0076
-3.948e-03,-0.28,-0.24,-0.0044,0.0028
-3.946e-03,-0.28,-0.3,-0.0012,-0.0068
-3.944e-03,-0.28,-0.24,-0.0012,0.0044
-3.942e-03,-0.28,-0.3,-0.000400001,-0.0076
-3.940e-03,-0.26,-0.24,-0.002,0.0028
-3.938e-03,-0.28,-0.3,-0.0044,-0.006
-3.936e-03,-0.28,-0.24,-0.0036,0.0028
-3.935e-03,-0.28,-0.3,-0.0044,-0.0076
-3.933e-03,-0.28,-0.24,0.000399999,0.0044
-3.931e-03,-0.26,-0.3,-0.0028,-0.0068
-3.929e-03,-0.26,-0.24,-0.0028,0.0028
-3.927e-03,-0.26,-0.3,-0.0044,-0.0068
-3.925e-03,-0.28,-0.24,-0.002,0.0028
-3.923e-03,-0.26,-0.3,-0.0012,-0.006
-3.921e-03,-0.28,-0.24,-0.0012,0.0044
-3.919e-03,-0.28,-0.32,-0.0028,-0.0076
-3.917e-03,-0.28,-0.24,-0.0028,0.0028
-3.915e-03,-0.26,-0.3,-0.000400001,-0.0084
-3.913e-03,-0.26,-0.24,-0.0052,0.0044
-3.911e-03,-0.28,-0.32,-0.000400001,-0.0068
-3.910e-03,-0.28,-0.26,-0.0012,0.0036
-3.908e-03,-0.28,-0.32,-0.0012,-0.0076
-3.906e-03,-0.28,-0.26,-0.006,0.0028
-3.904e-03,-0.28,-0.3,-0.0028,-0.0076
-3.902e-03,-0.26,-0.26,-0.0028,0.0028
-3.900e-03,-0.28,-0.32,-0.0044,-0.0076
-3.898e-03,-0.28,-0.24,-0.002,0.0028
-3.896e-03,-0.28,-0.32,-0.0036,-0.0076
-3.894e-03,-0.28,-0.26,-0.0036,0.0028
-3.892e-03,-0.26,-0.32,-0.000400001,-0.0084
-3.890e-03,-0.28,-0.24,-0.002,0.0036
-3.888e-03,-0.28,-0.32,-0.0012,-0.0068
-3.887e-03,-0.28,-0.26,-0.0012,0.002
-3.885e-03,-0.28,-0.32,-0.0036,-0.0076
-3.883e-03,-0.3,-0.26,-0.0036,0.0028
-3.881e-03,-0.28,-0.32,-0.0036,-0.0068
-3.879e-03,-0.28,-0.26,-0.0044,0.002
-3.877e-03,-0.28,-0.32,-0.000400001,-0.0076
-3.875e-03,-0.28,-0.26,-0.0036,0.0044
-3.873e-03,-0.28,-0.32,-0.0044,-0.0068
-3.871e-03,-0.28,-0.26,-0.0028,0.0028
-3.869e-03,-0.28,-0.32,-0.000400001,-0.0068
-3.867e-03,-0.28,-0.26,0.000399999,0.0044
-3.865e-03,-0.28,-0.32,-0.002,-0.0068
-3.863e-03,-0.3,-0.26,-0.0012,0.0036
-3.862e-03,-0.28,-0.32,-0.002,-0.0084
-3.860e-03,-0.3,-0.26,-0.0036,0.0028
-3.858e-03,-0.3,-0.32,0.000399999,-0.0068
-3.856e-03,-0.26,-0.26,-0.0012,0.0028
-3.854e-03,-0.3,-0.32,-0.0012,-0.0068
-3.852e-03,-0.28,-0.26,-0.000400001,0.002
-3.850e-03,-0.3,-0.32,-0.0012,-0.0068
-3.848e-03,-0.3,-0.26,-0.002,0.0036
-3.846e-03,-0.28,-0.32,-0.0012,-0.0076
-3.844e-03,-0.3,-0.26,0.000399999,0.0044
-3.842e-03,-0.28,-0.32,-0.000400001,-0.0076
-3.840e-03,-0.28,-0.26,-0.0028,0.0028
-3.839e-03,-0.3,-0.32,-0.0012,-0.0068
-3.837e-03,-0.3,-0.26,-0.0012,0.0028
-3.835e-03,-0.3,-0.34,-0.002,-0.0076
-3.833e-03,-0.3,-0.26,-0.000400001,0.0036
-3.831e-03,-0.3,-0.32,-0.0028,-0.0076
-3.829e-03,-0.3,-0.26,-0.002,0.0036
-3.827e-03,-0.3,-0.32,-0.0012,-0.0068
-3.825e-03,-0.3,-0.26,-0.0012,0.0036
-3.823e-03,-0.3,-0.34,-0.0028,-0.0068
-3.821e-03,-0.3,-0.28,-0.0052,0.002
-3.819e-03,-0.3,-0.34,-0.0012,-0.0076
-3.817e-03,-0.3,-0.28,-0.000400001,0.002
-3.815e-03,-0.3,-0.34,-0.0052,-0.0068
-3.814e-03,-0.3,-0.28,-0.0052,0.002
-3.812e-03,-0.3,-0.34,-0.0036,-0.0068
-3.810e-03,-0.3,-0.28,-0.0036,0.0036
-3.808e-03,-0.3,-0.34,-0.0012,-0.0068
-3.806e-03,-0.3,-0.28,-0.000400001,0.0036
-3.804e-03,-0.28,-0.34,-0.0052,-0.0076
-3.802e-03,-0.32,-0.28,-0.0028,0.0028
-3.800e-03,-0.3,-0.34,-0.0052,-0.0076
-3.798e-03,-0.3,-0.28,-0.002,0.0028
-3.796e-03,-0.3,-0.34,-0.002,-0.0076
-3.794e-03,-0.3,-0.28,-0.0012,0.0028
-3.792e-03,-0.3,-0.34,-0.0036,-0.0076
-3.791e-03,-0.3,-0.28,-0.0036,0.002
-3.789e-03,-0.3,-0.34,-0.0052,-0.0076
-3.787e-03,-0.3,-0.28,-0.0028,0.002
-3.785e-03,-0.32,-0.34,-0.002,-0.0076
-3.783e-03,-0.3,-0.28,-0.000400001,0.0052
-3.781e-03,-0.3,-0.34,-0.0028,-0.0076
-3.779e-03,-0.32,-0.28,-0.002,0.002
-3.777e-03,-0.3,-0.34,-0.0012,-0.0092
-3.775e-03,-0.3,-0.28,-0.0028,0.0028
-3.773e-03,-0.3,-0.34,-0.0044,-0.0076
-3.771e-03,-0.3,-0.28,-0.002,0.0028
-3.769e-03,-0.3,-0.34,-0.0036,-0.0068
-3.767e-03,-0.32,-0.28,-0.002,0.0028
-3.766e-03,-0.32,-0.34,-0.000400001,-0.0076
-3.764e-03,-0.32,-0.28,-0.006,0.0028
-3.762e-03,-0.3,-0.34,-0.0068,-0.0084
-3.760e-03,-0.32,-0.28,-0.0028,0.0028
-3.758e-03,-0.3,-0.34,-0.0028,-0.0084
-3.756e-03,-0.3,-0.28,-0.002,0.0036
-3.754e-03,-0.32,-0.36,-0.0036,-0.0076
-3.752e-03,-0.32,-0.3,-0.0012,0.002
-3.750e-03,-0.32,-0.36,-0.0028,-0.0076
-3.748e-03,-0.32,-0.28,-0.0044,0.002
-3.746e-03,-0.32,-0.36,-0.0044,-0.0068
-3.744e-03,-0.32,-0.3,-0.0044,0.002
-3.743e-03,-0.32,-0.36,-0.0036,-0.0076
-3.741e-03,-0.34,-0.3,-0.0044,0.0028
-3.739e-03,-0.32,-0.36,-0.0036,-0.0076
-3.737e-03,-0.32,-0.3,-0.0028,0.0036
-3.735e-03,-0.32,-0.36,-0.0028,-0.0068
-3.733e-03,-0.32,-0.3,-0.0012,0.002
-3.731e-03,-0.32,-0.36,-0.0044,-0.006
-3.729e-03,-0.32,-0.3,-0.0012,0.0028
-3.727e-03,-0.32,-0.36,-0.002,-0.0076
-3.725e-03,-0.32,-0.3,-0.0044,0.0028
-3.723e-03,-0.32,-0.36,-0.0044,-0.0092
-3.721e-03,-0.32,-0.3,-0.0036,0.0028
-3.719e-03,-0.32,-0.36,-0.002,-0.0092
-3.718e-03,-0.32,-0.3,-0.0052,0.0036
-3.716e-03,-0.32,-0.36,-0.0036,-0.0068
-3.714e-03,-0.32,-0.3,-0.002,0.002
-3.712e-03,-0.32,-0.36,-0.000400001,-0.0068
-3.710e-03,-0.32,-0.3,-0.0012,0.0028
-3.708e-03,-0.32,-0.36,-0.0012,-0.0076
-3.706e-03,-0.32,-0.3,-0.0044,0.0036
-3.704e-03,-0.34,-0.36,-0.0028,-0.0084
-3.702e-03,-0.32,-0.3,-0.0044,0.0028
-3.700e-03,-0.34,-0.36,-0.002,-0.0084
-3.698e-03,-0.32,-0.3,-0.0052,0.0028
-3.696e-03,-0.32,-0.36,-0.0012,-0.0084
-3.695e-03,-0.32,-0.3,-0.000400001,0.0028
-3.693e-03,-0.34,-0.36,-0.0036,-0.0076
-3.691e-03,-0.32,-0.3,-0.0028,0.0036
-3.689e-03,-0.32,-0.36,-0.0044,-0.0076
-3.687e-03,-0.32,-0.3,-0.0028,0.0028
-3.685e-03,-0.34,-0.36,-0.002,-0.0076
-3.683e-03,-0.32,-0.3,-0.0044,0.002
-3.681e-03,-0.34,-0.36,-0.0028,-0.0084
-3.679e-03,-0.34,-0.3,-0.0012,0.002
-3.677e-03,-0.34,-0.36,-0.0044,-0.0076
-3.675e-03,-0.32,-0.3,-0.000400001,0.0036
-3.673e-03,-0.32,-0.38,-0.0036,-0.0068
-3.671e-03,-0.34,-0.3,-0.0036,0.0044
-3.670e-03,-0.34,-0.38,-0.0028,-0.0076
-3.668e-03,-0.34,-0.3,-0.002,0.002
-3.666e-03,-0.34,-0.38,-0.0028,-0.0076
-3.664e-03,-0.34,-0.3,-0.002,0.002
-3.662e-03,-0.34,-0.38,-0.0012,-0.0076
-3.660e-03,-0.34,-0.32,-0.0044,0.0028
-3.658e-03,-0.34,-0.38,-0.000400001,-0.0092
-3.656e-03,-0.34,-0.32,-0.0036,0.002
-3.654e-03,-0.34,-0.38,-0.002,-0.0084
-3.652e-03,-0.32,-0.32,-0.000400001,0.002
-3.650e-03,-0.34,-0.38,-0.0044,-0.0076
-3.648e-03,-0.34,-0.32,-0.0028,0.002
-3.647e-03,-0.34,-0.38,-0.002,-0.0092
-3.645e-03,-0.34,-0.32,-0.0028,0.0028
-3.643e-03,-0.34,-0.38,-0.0028,-0.01
-3.641e-03,-0.34,-0.32,-0.0028,0.0012
-3.639e-03,-0.34,-0.38,-0.0012,-0.0068
-3.637e-03,-0.34,-0.32,-0.0044,0.0036
-3.635e-03,-0.34,-0.38,-0.002,-0.0076
-3.633e-03,-0.34,-0.32,-0.000400001,0.002
-3.631e-03,-0.34,-0.38,-0.0044,-0.0084
-3.629e-03,-0.34,-0.32,-0.002,0.0028
-3.627e-03,-0.34,-0.38,-0.000400001,-0.0084
-3.625e-03,-0.36,-0.32,-0.0028,0.002
-3.623e-03,-0.34,-0.38,-0.0036,-0.0084
-3.622e-03,-0.36,-0.32,-0.0012,0.002
-3.620e-03,-0.34,-0.38,-0.0028,-0.0076
-3.618e-03,-0.34,-0.32,-0.0012,0.002
-3.616e-03,-0.36,-0.38,-0.0052,-0.0076
-3.614e-03,-0.36,-0.32,-0.002,0.0044
-3.612e-03,-0.34,-0.38,-0.0012,-0.0084
-3.610e-03,-0.36,-0.32,-0.0012,0.002
-3.608e-03,-0.34,-0.38,-0.002,-0.0068
-3.606e-03,-0.36,-0.32,-0.0028,0.0028
-3.604e-03,-0.36,-0.4,-0.002,-0.0076
-3.602e-03,-0.34,-0.32,-0.0028,0.002
-3.600e-03,-0.34,-0.4,-0.0036,-0.0084
-3.599e-03,-0.36,-0.32,-0.0028,0.0044
-3.597e-03,-0.34,-0.4,-0.0028,-0.0076
-3.595e-03,-0.34,-0.32,-0.0036,0.002
-3.593e-03,-0.34,-0.38,-0.0028,-0.0068
-3.591e-03,-0.36,-0.32,-0.000400001,0.0028
-3.589e-03,-0.34,-0.4,-0.0012,-0.01
-3.587e-03,-0.36,-0.34,-0.0028,0.0028
-3.585e-03,-0.36,-0.4,-0.0012,-0.0076
-3.583e-03,-0.34,-0.34,-0.0028,0.0028
-3.581e-03,-0.36,-0.4,-0.002,-0.0084
-3.579e-03,-0.36,-0.32,0.000399999,0.0036
-3.577e-03,-0.34,-0.4,-0.0028,-0.0076
-3.575e-03,-0.36,-0.34,-0.000400001,0.0028
-3.574e-03,-0.36,-0.4,-0.0036,-0.0084
-3.572e-03,-0.36,-0.34,-0.002,0.0028
-3.570e-03,-0.36,-0.4,-0.0036,-0.0068
-3.568e-03,-0.36,-0.34,-0.002,0.0028
-3.566e-03,-0.36,-0.4,-0.0036,-0.0076
-3.564e-03,-0.36,-0.34,-0.0028,0.0036
-3.562e-03,-0.36,-0.4,-0.000400001,-0.0084
-3.560e-03,-0.36,-0.34,-0.0012,0.0028
-3.558e-03,-0.36,-0.4,-0.0028,-0.0068
-3.556e-03,-0.36,-0.34,-0.002,0.002
-3.554e-03,-0.36,-0.4,-0.0052,-0.0068
-3.552e-03,-0.36,-0.34,-0.0044,0.0044
-3.551e-03,-0.36,-0.4,-0.0028,-0.0076
-3.549e-03,-0.36,-0.34,-0.0012,0.0036
-3.547e-03,-0.38,-0.4,-0.000400001,-0.0068
-3.545e-03,-0.36,-0.34,-0.0044,0.0052
-3.543e-03,-0.36,-0.4,-0.0028,-0.0076
-3.541e-03,-0.36,-0.34,-0.0036,0.0028
-3.539e-03,-0.36,-0.4,-0.0044,-0.0076
-3.537e-03,-0.38,-0.34,-0.0044,0.0028
-3.535e-03,-0.38,-0.4,-0.0044,-0.0084
-3.533e-03,-0.36,-0.34,0.000399999,0.0028
-3.531e-03,-0.36,-0.4,-0.0012,-0.0068
-3.529e-03,-0.38,-0.34,-0.0012,0.002
-3.527e-03,-0.38,-0.4,-0.0012,-0.0068
-3.526e-03,-0.36,-0.34,-0.0044,0.0028
-3.524e-03,-0.38,-0.4,-0.0028,-0.0068
-3.522e-03,-0.38,-0.34,0.0012,0.0036
-3.520e-03,-0.36,-0.4,-0.002,-0.0076
-3.518e-03,-0.38,-0.36,-0.0028,0.0028
-3.516e-03,-0.38,-0.42,-0.0028,-0.0084
-3.514e-03,-0.38,-0.36,-0.0036,0.0028
-3.512e-03,-0.38,-0.4,-0.0028,-0.0084
-3.510e-03,-0.36,-0.36,-0.0012,0.0036
-3.508e-03,-0.38,-0.42,-0.0028,-0.0068
-3.506e-03,-0.38,-0.34,-0.002,0.0028
-3.504e-03,-0.36,-0.42,-0.0052,-0.0076
-3.503e-03,-0.38,-0.36,0.000399999,0.0028
-3.501e-03,-0.36,-0.4,-0.000400001,-0.006
-3.499e-03,-0.38,-0.36,-0.0028,0.0028
-3.497e-03,-0.38,-0.42,-0.0028,-0.0076
-3.495e-03,-0.38,-0.36,-0.0044,0.0028
-3.493e-03,-0.36,-0.42,-0.0028,-0.0084
-3.491e-03,-0.38,-0.36,-0.0036,0.002
-3.489e-03,-0.4,-0.42,-0.0012,-0.0076
-3.487e-03,-0.38,-0.36,-0.002,0.0028
-3.485e-03,-0.38,-0.42,-0.0012,-0.0076
-3.483e-03,-0.38,-0.36,0.0012,0.0028
-3.481e-03,-0.38,-0.42,-0.0028,-0.0068
-3.479e-03,-0.38,-0.36,-0.0028,0.0036
-3.478e-03,-0.4,-0.42,-0.0036,-0.0084
-3.476e-03,-0.38,-0.36,-0.0044,0.0044
-3.474e-03,-0.38,-0.42,-0.000400001,-0.0068
-3.472e-03,-0.38,-0.36,-0.0012,0.0036
-3.470e-03,-0.4,-0.42,-0.0012,-0.0068
-3.468e-03,-0.38,-0.36,-0.0012,0.0028
-3.466e-03,-0.38,-0.42,-0.0036,-0.0084
-3.464e-03,-0.38,-0.36,-0.0012,0.0036
-3.462e-03,-0.4,-0.42,-0.0036,-0.0076
-3.460e-03,-0.38,-0.36,-0.0012,0.0028
-3.458e-03,-0.38,-0.42,-0.0044,-0.01
-3.456e-03,-0.38,-0.36,-0.002,0.002
-3.455e-03,-0.4,-0.42,-0.0044,-0.0068
-3.453e-03,-0.38,-0.36,0.0012,0.0028
-3.451e-03,-0.38,-0.42,-0.000400001,-0.0084
-3.449e-03,-0.4,-0.36,-0.000400001,0.0036
-3.447e-03,-0.4,-0.42,-0.0044,-0.0076
-3.445e-03,-0.38,-0.36,-0.0028,0.0028
-3.443e-03,-0.38,-0.42,-0.002,-0.0068
-3.441e-03,-0.4,-0.36,-0.0036,0.0028
-3.439e-03,-0.4,-0.42,-0.0036,-0.0068
-3.437e-03,-0.38,-0.36,-0.000400001,0.0036
-3.435e-03,-0.4,-0.42,-0.0028,-0.0084
-3.433e-03,-0.4,-0.36,-0.0012,0.002
-3.431e-03,-0.4,-0.42,-0.0028,-0.0068
-3.430e-03,-0.4,-0.36,-0.0012,0.0028
-3.428e-03,-0.38,-0.44,-0.0052,-0.0068
-3.426e-03,-0.38,-0.36,-0.0028,0.002
-3.424e-03,-0.4,-0.42,0.000399999,-0.006
-3.422e-03,-0.4,-0.36,-0.0012,0.0036
-3.420e-03,-0.38,-0.44,-0.0028,-0.0068
-3.418e-03,-0.4,-0.36,0.000399999,0.0044
-3.416e-03,-0.38,-0.44,-0.002,-0.0068
-3.414e-03,-0.4,-0.38,-0.002,0.0028
-3.412e-03,-0.4,-0.44,-0.0028,-0.0068
-3.410e-03,-0.38,-0.38,-0.0012,0.0036
-3.408e-03,-0.4,-0.42,-0.002,-0.0076
-3.406e-03,-0.4,-0.38,-0.0028,0.0036
-3.405e-03,-0.4,-0.44,-0.0012,-0.0068
-3.403e-03,-0.38,-0.38,-0.0012,0.0028
-3.401e-03,-0.4,-0.44,-0.0012,-0.0068
-3.399e-03,-0.4,-0.38,-0.0012,0.0044
-3.397e-03,-0.4,-0.44,-0.000400001,-0.006
-3.395e-03,-0.42,-0.38,-0.0012,0.0036
-3.393e-03,-0.4,-0.44,-0.0012,-0.0076
-3.391e-03,-0.4,-0.38,0.000399999,0.0036
-3.389e-03,-0.4,-0.44,-0.002,-0.0068
-3.387e-03,-0.4,-0.38,-0.002,0.0044
-3.385e-03,-0.4,-0.44,-0.0012,-0.006
-3.383e-03,-0.4,-0.38,-0.0028,0.0036
-3.382e-03,-0.4,-0.44,-0.000400001,-0.006
-3.380e-03,-0.4,-0.38,-0.000400001,0.0052
-3.378e-03,-0.4,-0.44,-0.0012,-0.0068
-3.376e-03,-0.4,-0.38,0.002,0.0028
-3.374e-03,-0.4,-0.44,-0.002,-0.006
-3.372e-03,-0.42,-0.38,0.000399999,0.0044
-3.370e-03,-0.4,-0.44,-0.002,-0.006
-3.368e-03,-0.42,-0.38,-0.002,0.0044
-3.366e-03,-0.42,-0.46,0.002,-0.0052
-3.364e-03,-0.4,-0.38,-0.000400001,0.0044
-3.362e-03,-0.4,-0.44,-0.0052,-0.0068
-3.360e-03,-0.4,-0.4,-0.000400001,0.0044
-3.358e-03,-0.42,-0.46,-0.0044,-0.0076
-3.357e-03,-0.4,-0.38,-0.0012,0.0036
-3.355e-03,-0.4,-0.44,0.0012,-0.006
-3.353e-03,-0.4,-0.38,-0.000400001,0.006
-3.351e-03,-0.4,-0.44,0.000399999,-0.0052
-3.349e-03,-0.4,-0.4,-0.0044,0.0044
-3.347e-03,-0.42,-0.46,0.0012,-0.006
-3.345e-03,-0.42,-0.38,-0.0036,0.0036
-3.343e-03,-0.4,-0.46,-0.0012,-0.0068
-3.341e-03,-0.4,-0.38,-0.0012,0.0044
-3.339e-03,-0.4,-0.44,-0.000400001,-0.006
-3.337e-03,-0.42,-0.38,-0.0012,0.0044
-3.335e-03,-0.42,-0.46,-0.002,-0.0052
-3.334e-03,-0.42,-0.38,-0.002,0.0052
-3.332e-03,-0.44,-0.46,0.0012,-0.0052
-3.330e-03,-0.42,-0.4,0.000399999,0.006
-3.328e-03,-0.42,-0.46,-0.000400001,-0.0044
-3.326e-03,-0.42,-0.4,-0.0012,0.0052
-3.324e-03,-0.4,-0.46,-0.0028,-0.0044
-3.322e-03,-0.42,-0.4,0.0028,0.0068
-3.320e-03,-0.42,-0.46,0.002,-0.0044
-3.318e-03,-0.42,-0.4,-0.000400001,0.006
-3.316e-03,-0.42,-0.46,0.0012,-0.0028
-3.314e-03,-0.44,-0.4,0.0012,0.0076
-3.312e-03,-0.42,-0.46,-0.002,-0.0028
-3.310e-03,-0.42,-0.4,0.0012,0.0076
-3.309e-03,-0.4,-0.46,0.0044,-0.0028
-3.307e-03,-0.42,-0.4,0.000399999,0.0092
-3.305e-03,-0.42,-0.46,0.0028,-0.002
-3.303e-03,-0.42,-0.4,0.0028,0.01
-3.301e-03,-0.42,-0.46,0.0068,0.000399999
-3.299e-03,-0.44,-0.4,0.006,0.0116
-3.297e-03,-0.42,-0.46,0.006,0.000399999
-3.295e-03,-0.42,-0.4,0.0092,0.0124
-3.293e-03,-0.42,-0.46,0.0116,0.0036
-3.291e-03,-0.42,-0.4,0.01,0.0156
-3.289e-03,-0.42,-0.46,0.0116,0.0068
-3.287e-03,-0.42,-0.4,0.0148,0.018
-3.286e-03,-0.44,-0.46,0.0148,0.01
-3.284e-03,-0.42,-0.4,0.0172,0.0212
-3.282e-03,-0.44,-0.46,0.0196,0.0132
-3.280e-03,-0.44,-0.4,0.0236,0.0268
-3.278e-03,-0.42,-0.48,0.0268,0.0172
-3.276e-03,-0.44,-0.4,0.026,0.03
-3.274e-03,-0.42,-0.46,0.0252,0.0204
-3.272e-03,-0.42,-0.4,0.0268,0.0308
-3.270e-03,-0.42,-0.46,0.0252,0.0204
-3.268e-03,-0.44,-0.4,0.0252,0.0308
-3.266e-03,-0.44,-0.46,0.0252,0.0164
-3.264e-03,-0.44,-0.4,0.022,0.0292
-3.262e-03,-0.44,-0.48,0.0204,0.0124
-3.261e-03,-0.44,-0.4,0.0164,0.0268
-3.259e-03,-0.44,-0.48,0.018,0.0092
-3.257e-03,-0.42,-0.4,0.0156,0.0212
-3.255e-03,-0.44,-0.46,0.014,0.006
-3.253e-03,-0.44,-0.4,0.0092,0.018
-3.251e-03,-0.44,-0.48,0.01,0.0036
-3.249e-03,-0.44,-0.42,0.0084,0.0148
-3.247e-03,-0.42,-0.48,0.006,0.000399999
-3.245e-03,-0.44,-0.4,0.002,0.0124
-3.243e-03,-0.46,-0.48,0.0052,-0.000400001
-3.241e-03,-0.44,-0.42,0.006,0.0116
-3.239e-03,-0.44,-0.48,0.002,-0.0028
-3.238e-03,-0.44,-0.42,0.006,0.01
-3.236e-03,-0.44,-0.48,0.0044,-0.002
-3.234e-03,-0.44,-0.42,0.0052,0.0076
-3.232e-03,-0.44,-0.48,0.0012,-0.0044
-3.230e-03,-0.44,-0.42,0.0012,0.0076
-3.228e-03,-0.44,-0.48,0.0012,-0.0044
-3.226e-03,-0.44,-0.42,0.0028,0.006
-3.224e-03,-0.46,-0.48,0.0012,-0.006
-3.222e-03,-0.42,-0.42,-0.000400001,0.006
-3.220e-03,-0.44,-0.48,-0.002,-0.0052
-3.218e-03,-0.44,-0.42,0.000399999,0.006
-3.216e-03,-0.46,-0.48,-0.000400001,-0.0052
-3.214e-03,-0.46,-0.42,0.002,0.006
-3.213e-03,-0.44,-0.48,-0.0012,-0.006
-3.211e-03,-0.44,-0.42,0.000399999,0.0044
-3.209e-03,-0.46,-0.48,-0.000400001,-0.006
-3.207e-03,-0.44,-0.42,-0.0012,0.0044
-3.205e-03,-0.44,-0.48,-0.000400001,-0.006
-3.203e-03,-0.42,-0.42,0.002,0.0044
-3.201e-03,-0.44,-0.48,-0.0036,-0.0052
-3.199e-03,-0.46,-0.42,-0.0012,0.0044
-3.197e-03,-0.44,-0.48,0.000399999,-0.006
-3.195e-03,-0.44,-0.42,-0.0012,0.0036
-3.193e-03,-0.44,-0.48,0.0028,-0.006
-3.191e-03,-0.46,-0.44,-0.002,0.0044
-3.190e-03,-0.46,-0.48,-0.0012,-0.0068
-3.188e-03,-0.44,-0.44,-0.0012,0.0036
-3.186e-03,-0.46,-0.5,-0.0036,-0.0068
-3.184e-03,-0.44,-0.42,0.000399999,0.0036
-3.182e-03,-0.46,-0.48,0.000399999,-0.006
-3.180e-03,-0.46,-0.42,0.0012,0.0028
-3.178e-03,-0.46,-0.48,-0.0012,-0.006
-3.176e-03,-0.44,-0.42,-0.000400001,0.0044
-3.174e-03,-0.44,-0.5,-0.0028,-0.0076
-3.172e-03,-0.46,-0.44,-0.000400001,0.0036
-3.170e-03,-0.46,-0.5,-0.002,-0.0068
-3.168e-03,-0.46,-0.44,-0.002,0.0036
-3.166e-03,-0.46,-0.5,-0.0028,-0.0076
-3.165e-03,-0.46,-0.44,-0.0036,0.0028
-3.163e-03,-0.46,-0.5,-0.000400001,-0.0076
-3.161e-03,-0.46,-0.44,0.000399999,0.0028
-3.159e-03,-0.44,-0.5,-0.0036,-0.0076
-3.157e-03,-0.46,-0.42,0.0012,0.0036
-3.155e-03,-0.46,-0.5,0.000399999,-0.0076
-3.153e-03,-0.48,-0.44,-0.0012,0.0028
-3.151e-03,-0.46,-0.5,-0.0044,-0.0068
-3.149e-03,-0.46,-0.44,-0.000400001,0.0044
-3.147e-03,-0.46,-0.5,-0.000400001,-0.0068
-3.145e-03,-0.48,-0.44,-0.0012,0.0044
-3.143e-03,-0.46,-0.5,-0.0028,-0.0084
-3.142e-03,-0.46,-0.44,-0.002,0.0028
-3.140e-03,-0.46,-0.5,-0.002,-0.0076
-3.138e-03,-0.46,-0.44,-0.0028,0.0036
-3.136e-03,-0.46,-0.5,-0.002,-0.0076
-3.134e-03,-0.44,-0.44,-0.0028,0.0028
-3.132e-03,-0.48,-0.5,-0.0028,-0.0092
-3.130e-03,-0.46,-0.44,-0.000400001,0.0028
-3.128e-03,-0.46,-0.5,-0.0012,-0.0076
-3.126e-03,-0.46,-0.44,-0.0052,0.0036
-3.124e-03,-0.48,-0.5,-0.0028,-0.0076
-3.122e-03,-0.48,-0.44,-0.002,0.0036
-3.120e-03,-0.48,-0.5,-0.0012,-0.0084
-3.118e-03,-0.48,-0.44,-0.002,0.0036
-3.117e-03,-0.46,-0.5,-0.0036,-0.0068
-3.115e-03,-0.48,-0.44,-0.0028,0.0028
-3.113e-03,-0.48,-0.5,-0.0012,-0.0068
-3.111e-03,-0.48,-0.44,-0.002,0.0028
-3.109e-03,-0.48,-0.5,-0.0044,-0.0084
-3.107e-03,-0.46,-0.44,0.000399999,0.0036
-3.105e-03,-0.48,-0.5,-0.000400001,-0.0068
-3.103e-03,-0.46,-0.44,-0.0012,0.002
-3.101e-03,-0.46,-0.5,-0.000400001,-0.0076
-3.099e-03,-0.48,-0.44,-0.0012,0.0028
-3.097e-03,-0.48,-0.52,-0.0028,-0.0076
-3.095e-03,-0.48,-0.44,-0.0012,0.002
-3.094e-03,-0.48,-0.5,-0.002,-0.0076
-3.092e-03,-0.48,-0.46,-0.0044,0.002
-3.090e-03,-0.48,-0.5,-0.0044,-0.0068
-3.088e-03,-0.48,-0.46,-0.0036,0.002
-3.086e-03,-0.48,-0.5,-0.0028,-0.0068
-3.084e-03,-0.48,-0.44,-0.000400001,0.0052
-3.082e-03,-0.46,-0.52,-0.0036,-0.0068
-3.080e-03,-0.46,-0.46,-0.0036,0.0036
-3.078e-03,-0.48,-0.52,-0.002,-0.0068
-3.076e-03,-0.48,-0.46,-0.0036,0.0028
-3.074e-03,-0.48,-0.52,-0.0044,-0.0076
-3.072e-03,-0.48,-0.46,-0.0028,0.0036
-3.070e-03,-0.46,-0.52,-0.0052,-0.0076
-3.069e-03,-0.48,-0.46,-0.0028,0.0036
-3.067e-03,-0.48,-0.52,-0.0028,-0.0076
-3.065e-03,-0.5,-0.46,0.000399999,0.0028
-3.063e-03,-0.46,-0.52,-0.000400001,-0.0076
-3.061e-03,-0.48,-0.46,-0.000400001,0.0036
-3.059e-03,-0.48,-0.52,-0.0028,-0.0076
-3.057e-03,-0.48,-0.46,-0.000400001,0.002
-3.055e-03,-0.5,-0.52,-0.002,-0.0076
-3.053e-03,-0.5,-0.46,-0.0012,0.0028
-3.051e-03,-0.48,-0.52,-0.0052,-0.0084
-3.049e-03,-0.48,-0.46,-0.002,0.0028
-3.047e-03,-0.48,-0.52,-0.0044,-0.0084
-3.046e-03,-0.5,-0.46,-0.0012,0.0036
-3.044e-03,-0.48,-0.52,-0.0044,-0.0076
-3.042e-03,-0.5,-0.46,-0.0012,0.0028
-3.040e-03,-0.5,-0.52,-0.006,-0.0084
-3.038e-03,-0.5,-0.46,-0.0036,0.002
-3.036e-03,-0.5,-0.52,-0.0044,-0.0076
-3.034e-03,-0.5,-0.46,-0.0044,0.0036
-3.032e-03,-0.5,-0.52,-0.0044,-0.0076
-3.030e-03,-0.48,-0.46,-0.0044,0.0028
-3.028e-03,-0.5,-0.52,-0.0028,-0.0068
-3.026e-03,-0.5,-0.46,-0.000400001,0.0036
-3.024e-03,-0.48,-0.52,-0.0012,-0.0068
-3.022e-03,-0.5,-0.48,-0.0036,0.0028
-3.021e-03,-0.5,-0.52,-0.0036,-0.0076
-3.019e-03,-0.5,-0.46,-0.0028,0.0036
-3.017e-03,-0.5,-0.52,-0.000400001,-0.0076
-3.015e-03,-0.5,-0.48,-0.0036,0.0028
-3.013e-03,-0.5,-0.52,-0.006,-0.0068
-3.011e-03,-0.5,-0.46,-0.0028,0.0036
-3.009e-03,-0.5,-0.52,0.0012,-0.006
-3.007e-03,-0.5,-0.48,-0.0044,0.0036
-3.005e-03,-0.5,-0.52,-0.002,-0.0068
-3.003e-03,-0.5,-0.46,0.000399999,0.0036
-3.001e-03,-0.5,-0.52,-0.0036,-0.0068
-2.999e-03,-0.5,-0.48,-0.002,0.0036
-2.998e-03,-0.5,-0.54,-0.0036,-0.0068
-2.996e-03,-0.5,-0.46,-0.0012,0.002
-2.994e-03,-0.5,-0.54,-0.0044,-0.006
-2.992e-03,-0.5,-0.46,-0.0036,0.0036
-2.990e-03,-0.52,-0.54,-0.000400001,-0.0076
-2.988e-03,-0.5,-0.48,-0.0028,0.0036
-2.986e-03,-0.5,-0.54,-0.0012,-0.0068
-2.984e-03,-0.5,-0.48,-0.0044,0.0028
-2.982e-03,-0.52,-0.54,-0.0012,-0.0068
-2.980e-03,-0.52,-0.48,-0.0012,0.0028
-2.978e-03,-0.5,-0.54,-0.0044,-0.0076
-2.976e-03,-0.5,-0.48,-0.0028,0.0028
-2.974e-03,-0.5,-0.54,-0.0036,-0.0092
-2.973e-03,-0.5,-0.48,0.000399999,0.0036
-2.971e-03,-0.5,-0.54,-0.002,-0.0068
-2.969e-03,-0.5,-0.48,-0.002,0.0028
-2.967e-03,-0.5,-0.54,0.000399999,-0.0076
-2.965e-03,-0.52,-0.48,-0.0028,0.002
-2.963e-03,-0.5,-0.54,-0.002,-0.0068
-2.961e-03,-0.52,-0.48,-0.0036,0.0028
-2.959e-03,-0.52,-0.54,-0.0052,-0.0084
-2.957e-03,-0.52,-0.48,-0.0036,0.0028
-2.955e-03,-0.52,-0.54,-0.0044,-0.0084
-2.953e-03,-0.52,-0.48,-0.0012,0.002
-2.951e-03,-0.5,-0.54,-0.002,-0.0076
-2.950e-03,-0.5,-0.48,-0.002,0.0028
-2.948e-03,-0.52,-0.54,-0.0044,-0.0084
-2.946e-03,-0.52,-0.48,-0.000400001,0.0028
-2.944e-03,-0.52,-0.54,-0.0012,-0.0084
-2.942e-03,-0.52,-0.48,-0.0012,0.0028
-2.940e-03,-0.52,-0.54,-0.0036,-0.0068
-2.938e-03,-0.52,-0.5,-0.0044,0.0028
-2.936e-03,-0.52,-0.54,-0.0028,-0.0076
-2.934e-03,-0.5,-0.5,-0.0036,0.0028
-2.932e-03,-0.52,-0.56,-0.0044,-0.0076
-2.930e-03,-0.52,-0.5,-0.002,0.0028
-2.928e-03,-0.52,-0.56,-0.000400001,-0.0092
-2.926e-03,-0.52,-0.5,-0.0028,0.002
-2.925e-03,-0.5,-0.56,-0.000400001,-0.0076
-2.923e-03,-0.52,-0.5,-0.002,0.0028
-2.921e-03,-0.52,-0.56,-0.002,-0.0068
-2.919e-03,-0.52,-0.5,-0.0028,0.0028
-2.917e-03,-0.52,-0.56,-0.0028,-0.0084
-2.915e-03,-0.52,-0.5,-0.002,0.0028
-2.913e-03,-0.52,-0.56,-0.002,-0.0076
-2.911e-03,-0.52,-0.5,-0.0036,0.0028
-2.909e-03,-0.52,-0.56,-0.0028,-0.0076
-2.907e-03,-0.52,-0.5,-0.0036,0.0036
-2.905e-03,-0.54,-0.56,-0.000400001,-0.0076
-2.903e-03,-0.52,-0.5,-0.0012,0.0044
-2.902e-03,-0.52,-0.56,-0.0012,-0.0076
-2.900e-03,-0.52,-0.5,-0.0044,0.002
-2.898e-03,-0.52,-0.56,-0.0012,-0.0068
-2.896e-03,-0.52,-0.5,-0.0028,0.0028
-2.894e-03,-0.54,-0.56,-0.0036,-0.0084
-2.892e-03,-0.52,-0.5,-0.0044,0.0036
-2.890e-03,-0.52,-0.56,-0.0028,-0.006
-2.888e-03,-0.52,-0.5,-0.0028,0.0036
-2.886e-03,-0.54,-0.56,-0.0036,-0.0068
-2.884e-03,-0.54,-0.5,-0.0036,0.0028
-2.882e-03,-0.54,-0.56,-0.002,-0.0068
-2.880e-03,-0.54,-0.5,-0.0036,0.0036
-2.878e-03,-0.54,-0.56,-0.002,-0.01
-2.877e-03,-0.52,-0.5,-0.0044,0.002
-2.875e-03,-0.52,-0.56,-0.0012,-0.0068
-2.873e-03,-0.52,-0.5,-0.0036,0.0036
-2.871e-03,-0.54,-0.56,-0.000400001,-0.0068
-2.869e-03,-0.52,-0.5,-0.002,0.0044
-2.867e-03,-0.54,-0.56,-0.000400001,-0.0068
-2.865e-03,-0.52,-0.5,-0.002,0.0036
-2.863e-03,-0.54,-0.56,-0.0044,-0.0076
-2.861e-03,-0.54,-0.5,-0.0012,0.0044
-2.859e-03,-0.56,-0.58,-0.0012,-0.0076
-2.857e-03,-0.54,-0.5,-0.002,0.002
-2.855e-03,-0.52,-0.58,-0.000400001,-0.0092
-2.854e-03,-0.56,-0.52,-0.0028,0.0028
-2.852e-03,-0.56,-0.56,-0.002,-0.0068
-2.850e-03,-0.54,-0.52,-0.0012,0.0028
-2.848e-03,-0.54,-0.56,-0.0036,-0.0084
-2.846e-03,-0.56,-0.5,-0.002,0.0028
-2.844e-03,-0.54,-0.58,-0.0028,-0.0076
-2.842e-03,-0.54,-0.52,-0.0028,0.0036
-2.840e-03,-0.54,-0.58,-0.0036,-0.0076
-2.838e-03,-0.54,-0.5,-0.0012,0.0036
-2.836e-03,-0.54,-0.58,-0.0028,-0.006
-2.834e-03,-0.52,-0.52,-0.0052,0.002
-2.832e-03,-0.54,-0.56,-0.0012,-0.0068
-2.830e-03,-0.54,-0.52,-0.000400001,0.0028
-2.829e-03,-0.54,-0.58,-0.0052,-0.0076
-2.827e-03,-0.56,-0.52,-0.0028,0.0028
-2.825e-03,-0.54,-0.58,-0.000400001,-0.0076
-2.823e-03,-0.54,-0.52,-0.002,0.002
-2.821e-03,-0.54,-0.58,-0.0012,-0.0076
-2.819e-03,-0.54,-0.52,-0.0012,0.0028
-2.817e-03,-0.54,-0.58,-0.0012,-0.0076
-2.815e-03,-0.54,-0.52,-0.0036,0.002
-2.813e-03,-0.54,-0.58,-0.0036,-0.0068
-2.811e-03,-0.52,-0.52,-0.0036,0.0028
-2.809e-03,-0.56,-0.58,-0.002,-0.0084
-2.807e-03,-0.54,-0.52,-0.0012,0.0028
-2.805e-03,-0.54,-0.58,-0.0028,-0.0084
-2.804e-03,-0.56,-0.52,-0.0052,0.0028
-2.802e-03,-0.56,-0.58,-0.0012,-0.0084
-2.800e-03,-0.56,-0.52,-0.0012,0.0028
-2.798e-03,-0.54,-0.58,-0.002,-0.0068
-2.796e-03,-0.54,-0.52,-0.002,0.0028
-2.794e-03,-0.56,-0.58,0.0012,-0.0068
-2.792e-03,-0.56,-0.52,-0.0012,0.002
-2.790e-03,-0.56,-0.58,-0.0044,-0.0068
-2.788e-03,-0.54,-0.52,-0.006,0.0036
-2.786e-03,-0.56,-0.58,-0.0044,-0.0076
-2.784e-03,-0.56,-0.52,-0.0036,0.002
-2.782e-03,-0.54,-0.58,-0.0036,-0.0076
-2.781e-03,-0.54,-0.52,-0.0028,0.0044
-2.779e-03,-0.56,-0.58,-0.0028,-0.0068
-2.777e-03,-0.56,-0.54,-0.0012,0.0028
-2.775e-03,-0.54,-0.6,-0.0012,-0.0076
-2.773e-03,-0.56,-0.54,-0.0012,0.002
-2.771e-03,-0.56,-0.58,-0.002,-0.0076
-2.769e-03,-0.56,-0.54,-0.0028,0.0028
-2.767e-03,-0.56,-0.58,0.000399999,-0.0068
-2.765e-03,-0.56,-0.52,-0.0036,0.0036
-2.763e-03,-0.54,-0.6,0.002,-0.0076
-2.761e-03,-0.56,-0.54,-0.0012,0.0036
-2.759e-03,-0.56,-0.58,-0.0052,-0.0084
-2.757e-03,-0.56,-0.54,-0.0012,0.0028
-2.756e-03,-0.56,-0.58,-0.0028,-0.0068
-2.754e-03,-0.56,-0.54,-0.0012,0.0036
-2.752e-03,-0.56,-0.6,-0.002,-0.0068
-2.750e-03,-0.56,-0.54,-0.0012,0.0036
-2.748e-03,-0.58,-0.6,-0.0012,-0.0076
-2.746e-03,-0.56,-0.54,-0.0044,0.0028
-2.744e-03,-0.56,-0.6,-0.0012,-0.0076
-2.742e-03,-0.56,-0.54,-0.000400001,0.0028
-2.740e-03,-0.56,-0.6,-0.0028,-0.0076
-2.738e-03,-0.58,-0.54,-0.002,0.002
-2.736e-03,-0.56,-0.6,-0.002,-0.0068
-2.734e-03,-0.56,-0.54,-0.0012,0.0044
-2.733e-03,-0.56,-0.6,-0.0012,-0.0076
-2.731e-03,-0.56,-0.54,-0.0036,0.0028
-2.729e-03,-0.58,-0.6,-0.0028,-0.0068
-2.727e-03,-0.58,-0.54,-0.0028,0.0028
-2.725e-03,-0.58,-0.6,-0.002,-0.0068
-2.723e-03,-0.58,-0.54,-0.0012,0.0028
-2.721e-03,-0.56,-0.6,-0.0052,-0.0076
-2.719e-03,-0.58,-0.54,-0.000400001,0.002
-2.717e-03,-0.56,-0.6,-0.0028,-0.0076
-2.715e-03,-0.56,-0.54,-0.0012,0.0036
-2.713e-03,-0.56,-0.6,-0.0044,-0.006
-2.711e-03,-0.56,-0.54,-0.0028,0.0028
-2.709e-03,-0.56,-0.6,-0.0028,-0.0068
-2.708e-03,-0.58,-0.54,-0.0036,0.0036
-2.706e-03,-0.58,-0.62,0.0012,-0.0076
-2.704e-03,-0.58,-0.56,-0.002,0.0028
-2.702e-03,-0.56,-0.6,-0.0028,-0.0076
-2.700e-03,-0.56,-0.54,-0.0028,0.0036
-2.698e-03,-0.56,-0.6,-0.0036,-0.0076
-2.696e-03,-0.56,-0.54,-0.0012,0.0036
-2.694e-03,-0.58,-0.6,-0.0028,-0.006
-2.692e-03,-0.58,-0.54,-0.002,0.0044
-2.690e-03,-0.58,-0.6,-0.000400001,-0.0068
-2.688e-03,-0.56,-0.56,-0.0044,0.0036
-2.686e-03,-0.56,-0.6,-0.0028,-0.006
-2.685e-03,-0.56,-0.54,-0.000400001,0.0028
-2.683e-03,-0.56,-0.6,-0.0012,-0.0084
-2.681e-03,-0.56,-0.54,-0.0012,0.0036
-2.679e-03,-0.58,-0.62,-0.0012,-0.0068
-2.677e-03,-0.58,-0.56,-0.000400001,0.0028
-2.675e-03,-0.58,-0.6,-0.0028,-0.0068
-2.673e-03,-0.56,-0.56,-0.0036,0.0036
-2.671e-03,-0.58,-0.62,0.0012,-0.0068
-2.669e-03,-0.58,-0.56,-0.0012,0.0036
-2.667e-03,-0.58,-0.62,-0.0044,-0.0076
-2.665e-03,-0.58,-0.54,-0.000400001,0.0044
-2.663e-03,-0.58,-0.6,-0.0012,-0.0076
-2.661e-03,-0.58,-0.56,-0.002,0.0028
-2.660e-03,-0.58,-0.62,-0.0012,-0.0068
-2.658e-03,-0.58,-0.56,-0.0028,0.0028
-2.656e-03,-0.58,-0.62,-0.000400001,-0.0076
-2.654e-03,-0.58,-0.56,-0.000400001,0.0044
-2.652e-03,-0.58,-0.62,-0.0028,-0.0084
-2.650e-03,-0.6,-0.56,-0.006,0.0036
-2.648e-03,-0.58,-0.62,-0.0028,-0.0068
-2.646e-03,-0.58,-0.56,-0.0028,0.0028
-2.644e-03,-0.6,-0.62,-0.006,-0.006
-2.642e-03,-0.58,-0.56,-0.0036,0.0036
-2.640e-03,-0.58,-0.62,-0.000400001,-0.0084
-2.638e-03,-0.58,-0.56,-0.002,0.0028
-2.637e-03,-0.58,-0.62,-0.0036,-0.0068
-2.635e-03,-0.58,-0.56,-0.000400001,0.0036
-2.633e-03,-0.58,-0.62,-0.0036,-0.0068
-2.631e-03,-0.6,-0.56,-0.0036,0.0028
-2.629e-03,-0.58,-0.62,-0.002,-0.0076
-2.627e-03,-0.58,-0.56,-0.0036,0.0036
-2.625e-03,-0.6,-0.62,0.000399999,-0.0068
-2.623e-03,-0.6,-0.56,-0.0044,0.0036
-2.621e-03,-0.6,-0.62,-0.000400001,-0.006
-2.619e-03,-0.6,-0.56,-0.0012,0.0028
-2.617e-03,-0.58,-0.62,-0.002,-0.006
-2.615e-03,-0.6,-0.56,-0.0012,0.0052
-2.613e-03,-0.58,-0.62,-0.0012,-0.006
-2.612e-03,-0.6,-0.56,-0.000400001,0.0044
-2.610e-03,-0.6,-0.62,-0.002,-0.0076
-2.608e-03,-0.58,-0.58,-0.002,0.002
-2.606e-03,-0.6,-0.62,0.0012,-0.0068
-2.604e-03,-0.6,-0.58,-0.000400001,0.0028
-2.602e-03,-0.6,-0.62,-0.002,-0.0084
-2.600e-03,-0.62,-0.58,0.0012,0.0044
-2.598e-03,-0.6,-0.62,-0.0052,-0.0068
-2.596e-03,-0.6,-0.56,-0.0028,0.0044
-2.594e-03,-0.6,-0.64,0.0012,-0.006
-2.592e-03,-0.6,-0.58,-0.0036,0.0036
-2.590e-03,-0.6,-0.64,-0.0044,-0.0076
-2.589e-03,-0.62,-0.56,-0.002,0.0036
-2.587e-03,-0.6,-0.64,-0.0012,-0.0084
-2.585e-03,-0.6,-0.58,-0.002,0.0052
-2.583e-03,-0.6,-0.64,-0.0028,-0.006
-2.581e-03,-0.6,-0.58,-0.002,0.0036
-2.579e-03,-0.6,-0.64,0.000399999,-0.0068
-2.577e-03,-0.6,-0.58,-0.002,0.0044
-2.575e-03,-0.6,-0.62,0.0012,-0.006
-2.573e-03,-0.6,-0.58,-0.002,0.0036
-2.571e-03,-0.6,-0.64,-0.002,-0.0068
-2.569e-03,-0.6,-0.58,0.000399999,0.0044
-2.567e-03,-0.6,-0.64,-0.0028,-0.0068
-2.565e-03,-0.6,-0.58,-0.0028,0.0036
-2.564e-03,-0.6,-0.64,-0.0036,-0.0068
-2.562e-03,-0.6,-0.58,-0.0036,0.0028
-2.560e-03,-0.6,-0.64,-0.0012,-0.0068
-2.558e-03,-0.62,-0.58,-0.0028,0.0036
-2.556e-03,-0.6,-0.64,-0.002,-0.0068
-2.554e-03,-0.6,-0.58,-0.000400001,0.0036
-2.552e-03,-0.6,-0.64,-0.0012,-0.0068
-2.550e-03,-0.62,-0.58,0.000399999,0.0044
-2.548e-03,-0.62,-0.64,-0.002,-0.0076
-2.546e-03,-0.62,-0.58,0.000399999,0.0036
-2.544e-03,-0.62,-0.64,-0.0012,-0.0068
-2.542e-03,-0.6,-0.58,0.000399999,0.0036
-2.541e-03,-0.62,-0.64,-0.0036,-0.006
-2.539e-03,-0.62,-0.58,-0.002,0.0044
-2.537e-03,-0.62,-0.64,-0.002,-0.0068
-2.535e-03,-0.62,-0.58,-0.002,0.0036
-2.533e-03,-0.62,-0.64,-0.000400001,-0.0068
-2.531e-03,-0.62,-0.58,-0.0012,0.0044
-2.529e-03,-0.62,-0.64,-0.0012,-0.0068
-2.527e-03,-0.62,-0.58,-0.0036,0.0036
-2.525e-03,-0.62,-0.64,-0.0028,-0.0076
-2.523e-03,-0.6,-0.6,-0.000400001,0.0028
-2.521e-03,-0.62,-0.64,-0.0028,-0.0076
-2.519e-03,-0.62,-0.58,-0.0012,0.0044
-2.517e-03,-0.62,-0.64,0.0012,-0.0076
-2.516e-03,-0.62,-0.58,-0.000400001,0.006
-2.514e-03,-0.62,-0.64,-0.0012,-0.0076
-2.512e-03,-0.62,-0.6,-0.0044,0.0044
-2.510e-03,-0.62,-0.64,-0.0012,-0.006
-2.508e-03,-0.6,-0.6,-0.0036,0.0036
-2.506e-03,-0.6,-0.64,-0.002,-0.0068
-2.504e-03,-0.62,-0.6,0.000399999,0.0044
-2.502e-03,-0.62,-0.66,-0.0012,-0.0068
-2.500e-03,-0.62,-0.6,-0.002,0.0036
-2.498e-03,-0.6,-0.64,-0.0036,-0.0076
-2.496e-03,-0.62,-0.6,-0.000400001,0.0028
-2.494e-03,-0.62,-0.64,-0.000400001,-0.0068
-2.493e-03,-0.62,-0.6,-0.0012,0.0036
-2.491e-03,-0.64,-0.66,-0.002,-0.0068
-2.489e-03,-0.62,-0.6,0.0012,0.0044
-2.487e-03,-0.62,-0.66,-0.0012,-0.0084
-2.485e-03,-0.64,-0.6,-0.002,0.0044
-2.483e-03,-0.62,-0.66,-0.002,-0.0068
-2.481e-03,-0.62,-0.6,-0.002,0.0044
-2.479e-03,-0.62,-0.66,-0.002,-0.006
-2.477e-03,-0.62,-0.6,-0.0044,0.0044
-2.475e-03,-0.62,-0.66,-0.0028,-0.006
-2.473e-03,-0.62,-0.6,-0.002,0.0052
-2.471e-03,-0.62,-0.66,-0.002,-0.006
-2.469e-03,-0.62,-0.6,-0.0028,0.0052
-2.468e-03,-0.62,-0.66,-0.0036,-0.006
-2.466e-03,-0.62,-0.6,-0.000400001,0.0044
-2.464e-03,-0.64,-0.66,-0.002,-0.0052
-2.462e-03,-0.62,-0.6,0.0028,0.0036
-2.460e-03,-0.64,-0.66,-0.0012,-0.006
-2.458e-03,-0.64,-0.6,0.000399999,0.0052
-2.456e-03,-0.64,-0.66,0.002,-0.006
-2.454e-03,-0.64,-0.6,-0.0044,0.0052
-2.452e-03,-0.64,-0.66,-0.0012,-0.006
-2.450e-03,-0.62,-0.6,-0.000400001,0.0044
-2.448e-03,-0.64,-0.66,-0.0012,-0.0052
-2.446e-03,-0.62,-0.6,-0.0012,0.0044
-2.445e-03,-0.64,-0.66,0.0012,-0.006
-2.443e-03,-0.64,-0.6,0.000399999,0.0052
-2.441e-03,-0.64,-0.66,-0.000400001,-0.0076
-2.439e-03,-0.64,-0.62,-0.0036,0.0052
-2.437e-03,-0.64,-0.66,-0.0036,-0.006
-2.435e-03,-0.64,-0.62,-0.002,0.0044
-2.433e-03,-0.64,-0.66,-0.0012,-0.006
-2.431e-03,-0.64,-0.62,0.000399999,0.0052
-2.429e-03,-0.62,-0.68,0.000399999,-0.006
-2.427e-03,-0.64,-0.62,-0.000400001,0.0044
-2.425e-03,-0.64,-0.66,0.0012,-0.0052
-2.423e-03,-0.64,-0.62,-0.0012,0.006
-2.421e-03,-0.64,-0.66,-0.0012,-0.0052
-2.420e-03,-0.64,-0.62,0.0012,0.0052
-2.418e-03,-0.64,-0.68,-0.0012,-0.0052
-2.416e-03,-0.64,-0.62,0.0012,0.0052
-2.414e-03,-0.64,-0.66,-0.000400001,-0.0052
-2.412e-03,-0.64,-0.62,0.002,0.0052
-2.410e-03,-0.62,-0.68,-0.0012,-0.0052
-2.408e-03,-0.64,-0.62,-0.000400001,0.0052
-2.406e-03,-0.64,-0.66,-0.0012,-0.0044
-2.404e-03,-0.64,-0.62,-0.000400001,0.006
-2.402e-03,-0.64,-0.68,-0.000400001,-0.006
-2.400e-03,-0.66,-0.62,0.000399999,0.0052
-2.398e-03,-0.64,-0.68,-0.000400001,-0.0044
-2.397e-03,-0.64,-0.62,-0.000400001,0.006
-2.395e-03,-0.64,-0.66,0.002,-0.0044
-2.393e-03,-0.64,-0.62,-0.0012,0.0052
-2.391e-03,-0.64,-0.68,0.0012,-0.0036
-2.389e-03,-0.64,-0.62,-0.000400001,0.006
-2.387e-03,-0.64,-0.68,0.000399999,-0.0036
-2.385e-03,-0.64,-0.62,0.000399999,0.0068
-2.383e-03,-0.64,-0.68,0.0012,-0.0044
-2.381e-03,-0.66,-0.62,-0.000400001,0.006
-2.379e-03,-0.64,-0.68,0.0012,-0.0036
-2.377e-03,-0.64,-0.62,0.0012,0.0068
-2.375e-03,-0.64,-0.68,0.002,-0.0028
-2.373e-03,-0.64,-0.62,0.002,0.0068
-2.372e-03,-0.64,-0.68,0.0044,-0.002
-2.370e-03,-0.64,-0.62,0.002,0.0084
-2.368e-03,-0.62,-0.68,0.0028,-0.002
-2.366e-03,-0.66,-0.62,0.0052,0.0116
-2.364e-03,-0.64,-0.68,0.0052,-0.000400001
-2.362e-03,-0.64,-0.62,0.006,0.0092
-2.360e-03,-0.64,-0.68,0.0068,-0.0012
-2.358e-03,-0.66,-0.62,0.0028,0.01
-2.356e-03,-0.64,-0.68,0.0052,-0.000400001
-2.354e-03,-0.64,-0.62,0.0036,0.0108
-2.352e-03,-0.66,-0.68,0.0044,0.0012
-2.350e-03,-0.64,-0.62,0.0028,0.01
-2.349e-03,-0.64,-0.68,0.0044,0.0012
-2.347e-03,-0.64,-0.62,0.0044,0.0116
-2.345e-03,-0.66,-0.68,0.0068,0.000399999
-2.343e-03,-0.64,-0.64,0.0044,0.0124
-2.341e-03,-0.64,-0.68,0.0084,0.0012
-2.339e-03,-0.64,-0.62,0.0052,0.0116
-2.337e-03,-0.64,-0.68,0.0068,0.000399999
-2.335e-03,-0.64,-0.62,0.0076,0.0116
-2.333e-03,-0.64,-0.68,0.0076,0.0012
-2.331e-03,-0.64,-0.62,0.0084,0.0108
-2.329e-03,-0.66,-0.68,0.0028,0.002
-2.327e-03,-0.64,-0.62,0.0084,0.0116
-2.325e-03,-0.64,-0.68,0.0084,0.002
-2.324e-03,-0.62,-0.62,0.0068,0.0116
-2.322e-03,-0.66,-0.68,0.006,0.0012
-2.320e-03,-0.64,-0.62,0.0052,0.0124
-2.318e-03,-0.64,-0.68,0.006,0.000399999
-2.316e-03,-0.64,-0.62,0.0068,0.0116
-2.314e-03,-0.64,-0.68,0.0052,0.000399999
-2.312e-03,-0.64,-0.62,0.0052,0.0116
-2.310e-03,-0.64,-0.66,0.0068,0.000399999
-2.308e-03,-0.64,-0.62,0.0052,0.0108
-2.306e-03,-0.64,-0.66,0.0036,0.000399999
-2.304e-03,-0.64,-0.62,0.0068,0.0108
-2.302e-03,-0.64,-0.68,0.0068,-0.000400001
-2.301e-03,-0.64,-0.62,0.0052,0.0108
-2.299e-03,-0.64,-0.68,0.0084,-0.000400001
-2.297e-03,-0.64,-0.62,0.0076,0.0116
-2.295e-03,-0.64,-0.68,0.0028,0.000399999
-2.293e-03,-0.64,-0.62,0.006,0.0108
-2.291e-03,-0.64,-0.66,0.0044,0.000399999
-2.289e-03,-0.64,-0.62,0.002,0.0116
-2.287e-03,-0.64,-0.66,0.0052,-0.000400001
-2.285e-03,-0.64,-0.62,0.0044,0.01
-2.283e-03,-0.64,-0.66,0.0036,-0.0012
-2.281e-03,-0.64,-0.62,0.0012,0.0092
-2.279e-03,-0.62,-0.66,0.0036,-0.0028
-2.277e-03,-0.64,-0.6,0.006,0.0084
-2.276e-03,-0.64,-0.66,0.002,-0.002
-2.274e-03,-0.64,-0.62,0.0028,0.0076
-2.272e-03,-0.64,-0.66,0.0028,-0.0028
-2.270e-03,-0.64,-0.62,0.0028,0.0076
-2.268e-03,-0.64,-0.66,0.002,-0.0036
-2.266e-03,-0.64,-0.62,-0.0012,0.006
-2.264e-03,-0.62,-0.66,0.000399999,-0.0028
-2.262e-03,-0.64,-0.6,0.0012,0.0068
-2.260e-03,-0.62,-0.66,0.0012,-0.0036
-2.258e-03,-0.62,-0.6,0.002,0.0068
-2.256e-03,-0.62,-0.66,0.000399999,-0.0044
-2.254e-03,-0.62,-0.6,0.000399999,0.006
-2.253e-03,-0.62,-0.66,0.002,-0.0036
-2.251e-03,-0.62,-0.6,0.0044,0.006
-2.249e-03,-0.64,-0.66,-0.002,-0.0044
-2.247e-03,-0.64,-0.6,0.000399999,0.006
-2.245e-03,-0.62,-0.66,-0.000400001,-0.0052
-2.243e-03,-0.62,-0.6,0.002,0.0052
-2.241e-03,-0.62,-0.66,-0.0028,-0.0044
-2.239e-03,-0.62,-0.6,0.0012,0.006
-2.237e-03,-0.62,-0.66,0.002,-0.0052
-2.235e-03,-0.62,-0.6,-0.002,0.0052
-2.233e-03,-0.62,-0.66,0.002,-0.0052
-2.231e-03,-0.62,-0.6,0.0012,0.0052
-2.229e-03,-0.62,-0.66,-0.002,-0.0052
-2.228e-03,-0.64,-0.6,-0.000400001,0.0052
-2.226e-03,-0.62,-0.66,0.0036,-0.006
-2.224e-03,-0.62,-0.6,-0.000400001,0.006
-2.222e-03,-0.6,-0.64,-0.000400001,-0.006
-2.220e-03,-0.6,-0.6,-0.000400001,0.0052
-2.218e-03,-0.62,-0.64,0.000399999,-0.0052
-2.216e-03,-0.62,-0.6,0.000399999,0.0044
-2.214e-03,-0.62,-0.64,-0.000400001,-0.006
-2.212e-03,-0.62,-0.6,-0.0036,0.0044
-2.210e-03,-0.62,-0.64,-0.002,-0.006
-2.208e-03,-0.62,-0.58,-0.0036,0.0052
-2.206e-03,-0.62,-0.64,0.0012,-0.0052
-2.205e-03,-0.62,-0.58,0.000399999,0.0052
-2.203e-03,-0.62,-0.64,-0.000400001,-0.0052
-2.201e-03,-0.62,-0.6,-0.000400001,0.006
-2.199e-03,-0.62,-0.64,0.0012,-0.0052
-2.197e-03,-0.62,-0.6,0.0012,0.006
-2.195e-03,-0.6,-0.64,-0.002,-0.006
-2.193e-03,-0.6,-0.58,0.0028,0.0052
-2.191e-03,-0.62,-0.64,-0.000400001,-0.006
-2.189e-03,-0.6,-0.58,-0.0012,0.0044
-2.187e-03,-0.6,-0.64,0.002,-0.0052
-2.185e-03,-0.6,-0.58,0.0012,0.0044
-2.183e-03,-0.6,-0.64,-0.000400001,-0.006
-2.181e-03,-0.6,-0.58,-0.0012,0.0036
-2.180e-03,-0.62,-0.64,-0.002,-0.0052
-2.178e-03,-0.6,-0.58,0.0012,0.0044
-2.176e-03,-0.6,-0.64,-0.0012,-0.006
-2.174e-03,-0.62,-0.58,-0.0012,0.0052
-2.172e-03,-0.6,-0.64,-0.0012,-0.006
-2.170e-03,-0.62,-0.58,-0.0012,0.0052
-2.168e-03,-0.6,-0.64,-0.0028,-0.0068
-2.166e-03,-0.6,-0.58,-0.002,0.0044
-2.164e-03,-0.6,-0.64,0.0012,-0.006
-2.162e-03,-0.6,-0.58,-0.0012,0.006
-2.160e-03,-0.6,-0.64,0.000399999,-0.006
-2.158e-03,-0.6,-0.58,-0.002,0.0044
-2.156e-03,-0.6,-0.64,-0.000400001,-0.0052
-2.155e-03,-0.6,-0.58,-0.0012,0.0044
-2.153e-03,-0.6,-0.64,0.000399999,-0.0052
-2.151e-03,-0.6,-0.58,-0.0028,0.0044
-2.149e-03,-0.6,-0.64,-0.000400001,-0.006
-2.147e-03,-0.6,-0.58,-0.0028,0.0036
-2.145e-03,-0.6,-0.62,0.000399999,-0.006
-2.143e-03,-0.6,-0.58,-0.0012,0.0036
-2.141e-03,-0.6,-0.62,-0.002,-0.0076
-2.139e-03,-0.58,-0.58,0.000399999,0.0044
-2.137e-03,-0.6,-0.62,-0.002,-0.006
-2.135e-03,-0.6,-0.56,-0.0012,0.0044
-2.133e-03,-0.6,-0.62,-0.0012,-0.006
-2.132e-03,-0.6,-0.56,-0.0012,0.0044
-2.130e-03,-0.6,-0.62,-0.002,-0.006
-2.128e-03,-0.6,-0.56,-0.000400001,0.0036
-2.126e-03,-0.6,-0.62,-0.002,-0.0052
-2.124e-03,-0.58,-0.58,-0.000400001,0.0044
-2.122e-03,-0.6,-0.62,-0.0012,-0.006
-2.120e-03,-0.6,-0.56,-0.000400001,0.0036
-2.118e-03,-0.6,-0.62,-0.000400001,-0.006
-2.116e-03,-0.58,-0.56,0.0012,0.0036
-2.114e-03,-0.58,-0.62,0.000399999,-0.0068
-2.112e-03,-0.58,-0.56,0.000399999,0.0036
-2.110e-03,-0.58,-0.62,0.0012,-0.006
-2.108e-03,-0.6,-0.56,-0.0036,0.0044
-2.107e-03,-0.58,-0.62,0.000399999,-0.0068
-2.105e-03,-0.58,-0.56,-0.000400001,0.0044
-2.103e-03,-0.58,-0.62,0.0012,-0.0068
-2.101e-03,-0.6,-0.56,-0.0012,0.0052
-2.099e-03,-0.58,-0.62,-0.0028,-0.0068
-2.097e-03,-0.58,-0.56,-0.000400001,0.0036
-2.095e-03,-0.58,-0.62,-0.0036,-0.0084
-2.093e-03,-0.58,-0.56,-0.0044,0.0044
-2.091e-03,-0.58,-0.6,-0.002,-0.006
-2.089e-03,-0.58,-0.56,-0.0012,0.0036
-2.087e-03,-0.6,-0.62,-0.002,-0.006
-2.085e-03,-0.58,-0.56,0.000399999,0.0036
-2.084e-03,-0.58,-0.6,-0.002,-0.006
-2.082e-03,-0.56,-0.56,-0.000400001,0.0044
-2.080e-03,-0.58,-0.6,-0.002,-0.006
-2.078e-03,-0.58,-0.56,-0.0036,0.0044
-2.076e-03,-0.58,-0.6,-0.0012,-0.006
-2.074e-03,-0.56,-0.56,-0.000400001,0.0044
-2.072e-03,-0.58,-0.6,-0.002,-0.0084
-2.070e-03,-0.56,-0.54,0.000399999,0.0036
-2.068e-03,-0.58,-0.6,-0.002,-0.0068
-2.066e-03,-0.56,-0.54,-0.0012,0.0036
-2.064e-03,-0.58,-0.6,-0.0044,-0.0076
-2.062e-03,-0.56,-0.54,0.002,0.0036
-2.060e-03,-0.58,-0.6,0.000399999,-0.0068
-2.059e-03,-0.56,-0.56,-0.002,0.0028
-2.057e-03,-0.58,-0.6,0.0012,-0.006
-2.055e-03,-0.56,-0.54,-0.002,0.0044
-2.053e-03,-0.58,-0.6,-0.0012,-0.0068
-2.051e-03,-0.56,-0.54,0.000399999,0.0036
-2.049e-03,-0.56,-0.6,-0.002,-0.0068
-2.047e-03,-0.58,-0.54,-0.0012,0.0036
-2.045e-03,-0.56,-0.6,-0.0012,-0.0068
-2.043e-03,-0.56,-0.56,-0.002,0.0036
-2.041e-03,-0.56,-0.6,0.0012,-0.0068
-2.039e-03,-0.58,-0.54,-0.0012,0.0036
-2.037e-03,-0.56,-0.6,-0.0044,-0.0068
-2.036e-03,-0.56,-0.54,-0.000400001,0.0044
-2.034e-03,-0.56,-0.6,-0.0012,-0.0068
-2.032e-03,-0.56,-0.54,-0.0012,0.0036
-2.030e-03,-0.56,-0.6,-0.000400001,-0.0068
-2.028e-03,-0.58,-0.54,-0.0012,0.0044
-2.026e-03,-0.56,-0.6,-0.0028,-0.0052
-2.024e-03,-0.56,-0.54,-0.000400001,0.0044
-2.022e-03,-0.58,-0.6,-0.0012,-0.006
-2.020e-03,-0.56,-0.54,-0.0028,0.0036
-2.018e-03,-0.56,-0.6,0.000399999,-0.0068
-2.016e-03,-0.56,-0.54,-0.0012,0.0028
-2.014e-03,-0.56,-0.6,-0.0052,-0.006
-2.012e-03,-0.56,-0.54,-0.0044,0.0028
-2.011e-03,-0.56,-0.58,-0.002,-0.0068
-2.009e-03,-0.56,-0.54,-0.0028,0.0044
-2.007e-03,-0.54,-0.58,-0.002,-0.0068
-2.005e-03,-0.54,-0.54,0.000399999,0.0052
-2.003e-03,-0.56,-0.6,-0.0036,-0.0076
-2.001e-03,-0.54,-0.54,-0.006,0.0036
-1.999e-03,-0.56,-0.58,-0.002,-0.0068
-1.997e-03,-0.54,-0.54,-0.002,0.0036
-1.995e-03,-0.54,-0.58,-0.002,-0.0076
-1.993e-03,-0.56,-0.52,0.0012,0.0044
-1.991e-03,-0.56,-0.58,-0.0028,-0.0068
-1.989e-03,-0.54,-0.52,0.000399999,0.0044
-1.988e-03,-0.54,-0.58,-0.0012,-0.006
-1.986e-03,-0.56,-0.52,0.0012,0.0044
-1.984e-03,-0.54,-0.58,-0.002,-0.0076
-1.982e-03,-0.54,-0.52,-0.000400001,0.0036
-1.980e-03,-0.56,-0.58,-0.002,-0.0068
-1.978e-03,-0.54,-0.52,-0.000400001,0.006
-1.976e-03,-0.54,-0.58,-0.000400001,-0.006
-1.974e-03,-0.54,-0.52,-0.0028,0.0036
-1.972e-03,-0.56,-0.58,-0.0044,-0.006
-1.970e-03,-0.56,-0.52,-0.0028,0.0036
-1.968e-03,-0.52,-0.58,-0.002,-0.0076
-1.966e-03,-0.54,-0.52,-0.000400001,0.0052
-1.964e-03,-0.56,-0.58,-0.0036,-0.0076
-1.963e-03,-0.54,-0.52,-0.0012,0.0036
-1.961e-03,-0.54,-0.58,-0.002,-0.0084
-1.959e-03,-0.54,-0.52,-0.0028,0.0036
-1.957e-03,-0.52,-0.58,-0.0028,-0.0068
-1.955e-03,-0.56,-0.52,-0.002,0.0036
-1.953e-03,-0.54,-0.58,-0.000400001,-0.0076
-1.951e-03,-0.54,-0.52,-0.0036,0.0036
-1.949e-03,-0.54,-0.58,-0.000400001,-0.0076
-1.947e-03,-0.54,-0.52,-0.002,0.0036
-1.945e-03,-0.54,-0.58,-0.000400001,-0.006
-1.943e-03,-0.54,-0.52,-0.000400001,0.0036
-1.941e-03,-0.54,-0.56,0.0012,-0.0076
-1.940e-03,-0.52,-0.52,-0.0012,0.0036
-1.938e-03,-0.54,-0.56,-0.0044,-0.0068
-1.936e-03,-0.54,-0.5,0.000399999,0.0028
-1.934e-03,-0.54,-0.58,-0.0012,-0.0068
-1.932e-03,-0.54,-0.5,-0.002,0.0036
-1.930e-03,-0.54,-0.56,-0.000400001,-0.0084
-1.928e-03,-0.52,-0.5,-0.0028,0.0044
-1.926e-03,-0.54,-0.56,-0.0028,-0.0076
-1.924e-03,-0.54,-0.5,-0.0028,0.0028
-1.922e-03,-0.54,-0.58,-0.0044,-0.0068
-1.920e-03,-0.54,-0.52,-0.0044,0.0028
-1.918e-03,-0.52,-0.56,-0.000400001,-0.0068
-1.916e-03,-0.52,-0.5,-0.000400001,0.0036
-1.915e-03,-0.54,-0.56,0.000399999,-0.006
-1.913e-03,-0.52,-0.5,-0.002,0.0036
-1.911e-03,-0.54,-0.56,-0.0044,-0.006
-1.909e-03,-0.52,-0.5,-0.0028,0.0028
-1.907e-03,-0.52,-0.56,-0.0036,-0.0068
-1.905e-03,-0.52,-0.5,0.000399999,0.0044
-1.903e-03,-0.52,-0.56,-0.000400001,-0.006
-1.901e-03,-0.52,-0.5,-0.0052,0.0044
-1.899e-03,-0.52,-0.56,-0.0012,-0.006
-1.897e-03,-0.52,-0.5,0.0028,0.0028
-1.895e-03,-0.52,-0.56,-0.0012,-0.0076
-1.893e-03,-0.52,-0.5,-0.0028,0.0044
-1.892e-03,-0.52,-0.56,-0.000400001,-0.0076
-1.890e-03,-0.52,-0.5,-0.0012,0.0044
-1.888e-03,-0.52,-0.56,-0.0052,-0.0068
-1.886e-03,-0.52,-0.5,0.000399999,0.0036
-1.884e-03,-0.52,-0.56,-0.000400001,-0.0068
-1.882e-03,-0.52,-0.5,-0.0028,0.0036
-1.880e-03,-0.52,-0.56,-0.0036,-0.006
-1.878e-03,-0.52,-0.5,-0.0012,0.0044
-1.876e-03,-0.52,-0.56,-0.0012,-0.0068
-1.874e-03,-0.54,-0.5,-0.002,0.0036
-1.872e-03,-0.52,-0.56,-0.0028,-0.0068
-1.870e-03,-0.52,-0.5,-0.0036,0.0036
-1.868e-03,-0.52,-0.56,0.0012,-0.0076
-1.867e-03,-0.52,-0.5,-0.0012,0.0052
-1.865e-03,-0.5,-0.54,-0.0012,-0.0076
-1.863e-03,-0.52,-0.5,-0.006,0.0028
-1.861e-03,-0.52,-0.56,-0.002,-0.006
-1.859e-03,-0.52,-0.5,-0.0012,0.0044
-1.857e-03,-0.52,-0.54,-0.000400001,-0.0068
-1.855e-03,-0.52,-0.5,-0.0036,0.0052
-1.853e-03,-0.52,-0.54,-0.000400001,-0.006
-1.851e-03,-0.52,-0.48,-0.0012,0.0036
-1.849e-03,-0.52,-0.54,-0.0028,-0.0068
-1.847e-03,-0.5,-0.48,-0.000400001,0.0044
-1.845e-03,-0.5,-0.54,-0.002,-0.006
-1.844e-03,-0.5,-0.48,0.000399999,0.0036
-1.842e-03,-0.52,-0.54,-0.0036,-0.0076
-1.840e-03,-0.5,-0.48,0.000399999,0.0036
-1.838e-03,-0.48,-0.54,-0.0028,-0.006
-1.836e-03,-0.5,-0.48,-0.002,0.0036
-1.834e-03,-0.5,-0.54,-0.002,-0.0076
-1.832e-03,-0.5,-0.48,-0.002,0.0044
-1.830e-03,-0.5,-0.54,-0.0036,-0.0068
-1.828e-03,-0.52,-0.48,-0.0028,0.0036
-1.826e-03,-0.5,-0.54,-0.0028,-0.006
-1.824e-03,-0.5,-0.48,-0.002,0.0036
-1.822e-03,-0.52,-0.54,0.000399999,-0.0068
-1.820e-03,-0.5,-0.48,-0.0036,0.0036
-1.819e-03,-0.5,-0.54,-0.0012,-0.006
-1.817e-03,-0.5,-0.48,-0.0028,0.0036
-1.815e-03,-0.52,-0.52,-0.0036,-0.0068
-1.813e-03,-0.5,-0.48,-0.0036,0.0044
-1.811e-03,-0.5,-0.54,-0.0028,-0.0068
-1.809e-03,-0.5,-0.48,-0.0012,0.0036
-1.807e-03,-0.5,-0.52,-0.0012,-0.0068
-1.805e-03,-0.5,-0.46,-0.002,0.0044
-1.803e-03,-0.5,-0.54,-0.0012,-0.0068
-1.801e-03,-0.5,-0.46,-0.002,0.0036
-1.799e-03,-0.5,-0.52,-0.0012,-0.0068
-1.797e-03,-0.5,-0.46,-0.0028,0.0028
-1.796e-03,-0.5,-0.52,-0.000400001,-0.0068
-1.794e-03,-0.5,-0.46,-0.000400001,0.0036
-1.792e-03,-0.5,-0.52,-0.0044,-0.006
-1.790e-03,-0.5,-0.46,-0.0036,0.0036
-1.788e-03,-0.5,-0.54,0.000399999,-0.0084
-1.786e-03,-0.5,-0.48,-0.000400001,0.0036
-1.784e-03,-0.5,-0.52,-0.0012,-0.0068
-1.782e-03,-0.5,-0.46,-0.0012,0.0036
-1.780e-03,-0.48,-0.52,-0.0012,-0.0068
-1.778e-03,-0.5,-0.46,-0.002,0.0044
-1.776e-03,-0.5,-0.52,-0.0012,-0.0084
-1.774e-03,-0.48,-0.46,-0.0028,0.0036
-1.772e-03,-0.5,-0.52,-0.0028,-0.0068
-1.771e-03,-0.5,-0.46,-0.0012,0.0036
-1.769e-03,-0.5,-0.52,-0.0028,-0.0068
-1.767e-03,-0.48,-0.46,-0.0044,0.0044
-1.765e-03,-0.48,-0.52,-0.002,-0.0076
-1.763e-03,-0.48,-0.46,-0.0036,0.0028
-1.761e-03,-0.48,-0.52,-0.0012,-0.006
-1.759e-03,-0.48,-0.46,-0.0036,0.0044
-1.757e-03,-0.48,-0.52,-0.0044,-0.0068
-1.755e-03,-0.48,-0.46,-0.0044,0.0036
-1.753e-03,-0.48,-0.52,-0.000400001,-0.0068
-1.751e-03,-0.48,-0.46,-0.0036,0.0036
-1.749e-03,-0.48,-0.52,-0.0028,-0.0076
-1.748e-03,-0.48,-0.46,-0.0028,0.0044
-1.746e-03,-0.48,-0.52,-0.0028,-0.006
-1.744e-03,-0.48,-0.46,-0.0044,0.0044
-1.742e-03,-0.48,-0.52,0.000399999,-0.006
-1.740e-03,-0.46,-0.46,-0.0028,0.0044
-1.738e-03,-0.48,-0.52,-0.0036,-0.0068
-1.736e-03,-0.48,-0.44,0.000399999,0.0036
-1.734e-03,-0.48,-0.5,-0.0052,-0.006
-1.732e-03,-0.48,-0.44,-0.0012,0.0028
-1.730e-03,-0.46,-0.52,-0.0028,-0.0068
-1.728e-03,-0.48,-0.44,0.000399999,0.0044
-1.726e-03,-0.48,-0.5,-0.0044,-0.0068
-1.724e-03,-0.48,-0.44,-0.0012,0.0036
-1.723e-03,-0.48,-0.5,-0.0044,-0.0068
-1.721e-03,-0.48,-0.46,-0.002,0.0028
-1.719e-03,-0.48,-0.5,-0.0028,-0.0076
-1.717e-03,-0.48,-0.44,-0.002,0.0036
-1.715e-03,-0.46,-0.5,-0.0028,-0.0068
-1.713e-03,-0.48,-0.44,-0.000400001,0.0028
-1.711e-03,-0.46,-0.5,0.000399999,-0.0076
-1.709e-03,-0.48,-0.44,-0.0012,0.0036
-1.707e-03,-0.46,-0.5,-0.0012,-0.0068
-1.705e-03,-0.46,-0.44,-0.000400001,0.0028
-1.703e-03,-0.48,-0.5,-0.0012,-0.006
-1.701e-03,-0.46,-0.44,-0.002,0.0044
-1.700e-03,-0.46,-0.5,-0.0028,-0.0068
-1.698e-03,-0.46,-0.44,0.000399999,0.0036
-1.696e-03,-0.46,-0.5,0.000399999,-0.006
-1.694e-03,-0.46,-0.44,-0.0012,0.0036
-1.692e-03,-0.46,-0.5,-0.0028,-0.006
-1.690e-03,-0.48,-0.44,-0.000400001,0.0036
-1.688e-03,-0.46,-0.5,0.0012,-0.0068
-1.686e-03,-0.46,-0.44,-0.000400001,0.0036
-1.684e-03,-0.46,-0.5,-0.0036,-0.0068
-1.682e-03,-0.46,-0.44,-0.0012,0.0044
-1.680e-03,-0.46,-0.5,-0.0044,-0.0068
-1.678e-03,-0.46,-0.44,0.000399999,0.0028
-1.676e-03,-0.46,-0.5,0.0028,-0.0068
-1.675e-03,-0.44,-0.44,-0.0028,0.0044
-1.673e-03,-0.44,-0.5,0.000399999,-0.0068
-1.671e-03,-0.44,-0.44,0.000399999,0.0036
-1.669e-03,-0.46,-0.48,-0.0012,-0.0076
-1.667e-03,-0.46,-0.42,-0.002,0.0036
-1.665e-03,-0.48,-0.5,-0.0028,-0.0068
-1.663e-03,-0.46,-0.44,-0.002,0.0036
-1.661e-03,-0.44,-0.5,-0.000400001,-0.006
-1.659e-03,-0.44,-0.42,-0.0036,0.0044
-1.657e-03,-0.46,-0.48,-0.002,-0.0068
-1.655e-03,-0.44,-0.42,-0.0012,0.0036
-1.653e-03,-0.46,-0.48,-0.0012,-0.006
-1.652e-03,-0.44,-0.42,0.0012,0.0036
-1.650e-03,-0.44,-0.48,0.0012,-0.0068
-1.648e-03,-0.44,-0.42,-0.002,0.0028
-1.646e-03,-0.44,-0.48,0.000399999,-0.0068
-1.644e-03,-0.44,-0.42,-0.0012,0.0036
-1.642e-03,-0.44,-0.48,-0.0028,-0.0068
-1.640e-03,-0.44,-0.42,-0.0012,0.0036
-1.638e-03,-0.44,-0.48,-0.002,-0.0068
-1.636e-03,-0.46,-0.42,-0.0028,0.0028
-1.634e-03,-0.44,-0.48,-0.0012,-0.006
-1.632e-03,-0.44,-0.42,-0.0012,0.0036
-1.630e-03,-0.44,-0.48,-0.0036,-0.0076
-1.628e-03,-0.46,-0.42,-0.0012,0.0028
-1.627e-03,-0.44,-0.48,-0.002,-0.0068
-1.625e-03,-0.44,-0.42,-0.0028,0.0036
-1.623e-03,-0.44,-0.48,-0.0012,-0.0068
-1.621e-03,-0.44,-0.42,-0.000400001,0.0044
-1.619e-03,-0.44,-0.48,0.000399999,-0.0076
-1.617e-03,-0.44,-0.42,-0.002,0.0036
-1.615e-03,-0.44,-0.48,-0.002,-0.006
-1.613e-03,-0.44,-0.42,-0.0028,0.0036
-1.611e-03,-0.44,-0.48,-0.0028,-0.0068
-1.609e-03,-0.46,-0.42,-0.0012,0.0028
-1.607e-03,-0.44,-0.48,-0.000400001,-0.0084
-1.605e-03,-0.44,-0.42,-0.0028,0.0044
-1.604e-03,-0.44,-0.48,-0.0036,-0.006
-1.602e-03,-0.44,-0.4,-0.002,0.0052
-1.600e-03,-0.44,-0.48,-0.0012,-0.0068
-1.598e-03,-0.44,-0.42,-0.0012,0.0036
-1.596e-03,-0.44,-0.48,0.002,-0.0068
-1.594e-03,-0.44,-0.4,-0.0036,0.0028
-1.592e-03,-0.44,-0.48,-0.0012,-0.0068
-1.590e-03,-0.44,-0.4,-0.0044,0.0036
-1.588e-03,-0.44,-0.48,-0.0036,-0.0068
-1.586e-03,-0.44,-0.42,0.000399999,0.0044
-1.584e-03,-0.44,-0.48,-0.002,-0.0068
-1.582e-03,-0.42,-0.4,0.000399999,0.0052
-1.580e-03,-0.42,-0.46,-0.0028,-0.0068
-1.579e-03,-0.42,-0.4,-0.002,0.0036
-1.577e-03,-0.44,-0.46,0.0012,-0.0068
-1.575e-03,-0.42,-0.4,-0.0028,0.0028
-1.573e-03,-0.44,-0.46,0.0012,-0.006
-1.571e-03,-0.42,-0.4,0.000399999,0.0036
-1.569e-03,-0.42,-0.46,0.002,-0.0076
-1.567e-03,-0.42,-0.4,-0.000400001,0.0028
-1.565e-03,-0.42,-0.46,-0.0044,-0.0092
-1.563e-03,-0.42,-0.4,-0.0012,0.0036
-1.561e-03,-0.42,-0.46,-0.000400001,-0.006
-1.559e-03,-0.42,-0.4,-0.0012,0.0036
-1.557e-03,-0.44,-0.46,-0.0036,-0.0076
-1.555e-03,-0.42,-0.4,-0.000400001,0.0036
-1.554e-03,-0.44,-0.46,-0.0036,-0.0068
-1.552e-03,-0.42,-0.4,0.0012,0.0028
-1.550e-03,-0.42,-0.46,-0.002,-0.006
-1.548e-03,-0.42,-0.4,-0.0044,0.0036
-1.546e-03,-0.42,-0.46,0.000399999,-0.0068
-1.544e-03,-0.42,-0.4,0.0012,0.0044
-1.542e-03,-0.44,-0.46,-0.000400001,-0.0076
-1.540e-03,-0.42,-0.4,-0.0036,0.0036
-1.538e-03,-0.44,-0.46,-0.0012,-0.0076
-1.536e-03,-0.42,-0.4,-0.0028,0.0028
-1.534e-03,-0.42,-0.46,-0.0036,-0.0068
-1.532e-03,-0.42,-0.4,-0.000400001,0.0028
-1.531e-03,-0.4,-0.46,-0.0036,-0.0076
-1.529e-03,-0.42,-0.4,-0.002,0.0044
-1.527e-03,-0.42,-0.46,-0.0012,-0.006
-1.525e-03,-0.42,-0.4,-0.002,0.0036
-1.523e-03,-0.42,-0.44,0.0012,-0.0068
-1.521e-03,-0.42,-0.4,-0.000400001,0.0036
-1.519e-03,-0.4,-0.46,0.0012,-0.006
-1.517e-03,-0.42,-0.4,-0.0036,0.0044
-1.515e-03,-0.4,-0.46,-0.0012,-0.006
-1.513e-03,-0.4,-0.4,-0.0036,0.0052
-1.511e-03,-0.42,-0.46,-0.0028,-0.0068
-1.509e-03,-0.42,-0.4,0.0028,0.0028
-1.507e-03,-0.4,-0.46,0.000399999,-0.0076
-1.506e-03,-0.4,-0.4,-0.002,0.0028
-1.504e-03,-0.4,-0.44,-0.002,-0.0076
-1.502e-03,-0.4,-0.38,-0.0012,0.0052
-1.500e-03,-0.42,-0.44,-0.0028,-0.0076
-1.498e-03,-0.4,-0.38,-0.0052,0.0036
-1.496e-03,-0.42,-0.44,-0.0028,-0.0068
-1.494e-03,-0.4,-0.38,-0.002,0.0036
-1.492e-03,-0.4,-0.44,-0.0036,-0.0076
-1.490e-03,-0.4,-0.38,-0.0012,0.0036
-1.488e-03,-0.4,-0.44,-0.002,-0.0084
-1.486e-03,-0.4,-0.38,0.000399999,0.0036
-1.484e-03,-0.4,-0.44,-0.000400001,-0.0068
-1.483e-03,-0.4,-0.38,-0.000400001,0.0044
-1.481e-03,-0.4,-0.44,-0.000400001,-0.006
-1.479e-03,-0.42,-0.38,-0.0012,0.0028
-1.477e-03,-0.4,-0.44,-0.002,-0.006
-1.475e-03,-0.42,-0.38,-0.000400001,0.0036
-1.473e-03,-0.4,-0.44,-0.0012,-0.0068
-1.471e-03,-0.4,-0.38,-0.0028,0.0036
-1.469e-03,-0.4,-0.44,-0.0012,-0.0068
-1.467e-03,-0.4,-0.38,-0.000400001,0.0036
-1.465e-03,-0.4,-0.44,-0.0012,-0.0068
-1.463e-03,-0.4,-0.38,-0.0012,0.0028
-1.461e-03,-0.4,-0.44,-0.0036,-0.006
-1.459e-03,-0.4,-0.38,-0.002,0.0036
-1.458e-03,-0.4,-0.44,0.000399999,-0.0068
-1.456e-03,-0.4,-0.38,-0.002,0.0036
-1.454e-03,-0.4,-0.44,-0.002,-0.0068
-1.452e-03,-0.4,-0.38,0.0012,0.0044
-1.450e-03,-0.4,-0.42,0.000399999,-0.006
-1.448e-03,-0.4,-0.38,-0.0012,0.0036
-1.446e-03,-0.4,-0.42,-0.0044,-0.0076
-1.444e-03,-0.4,-0.36,-0.0012,0.0036
-1.442e-03,-0.38,-0.42,0.0012,-0.006
-1.440e-03,-0.4,-0.36,0.000399999,0.0052
-1.438e-03,-0.4,-0.42,-0.000400001,-0.0068
-1.436e-03,-0.38,-0.36,-0.002,0.0036
-1.435e-03,-0.4,-0.42,-0.0028,-0.0068
-1.433e-03,-0.4,-0.36,-0.000400001,0.0036
-1.431e-03,-0.4,-0.42,-0.0028,-0.0076
-1.429e-03,-0.4,-0.36,-0.0036,0.0044
-1.427e-03,-0.38,-0.42,-0.0028,-0.0068
-1.425e-03,-0.38,-0.36,-0.0012,0.0044
-1.423e-03,-0.38,-0.42,-0.0028,-0.0068
-1.421e-03,-0.38,-0.36,-0.000400001,0.0036
-1.419e-03,-0.4,-0.42,-0.0012,-0.006
-1.417e-03,-0.38,-0.36,-0.0012,0.0036
-1.415e-03,-0.38,-0.42,-0.002,-0.0076
-1.413e-03,-0.36,-0.36,-0.0012,0.0044
-1.411e-03,-0.4,-0.42,-0.000400001,-0.0076
-1.410e-03,-0.38,-0.36,-0.002,0.0036
-1.408e-03,-0.38,-0.42,-0.002,-0.0052
-1.406e-03,-0.38,-0.36,-0.000400001,0.0036
-1.404e-03,-0.38,-0.42,-0.002,-0.006
-1.402e-03,-0.38,-0.36,-0.0012,0.006
-1.400e-03,-0.36,-0.42,-0.002,-0.006
-1.398e-03,-0.36,-0.36,-0.002,0.0036
-1.396e-03,-0.4,-0.42,-0.002,-0.006
-1.394e-03,-0.38,-0.36,-0.0028,0.0044
-1.392e-03,-0.38,-0.42,-0.002,-0.006
-1.390e-03,-0.38,-0.36,-0.000400001,0.0036
-1.388e-03,-0.38,-0.42,-0.0012,-0.0084
-1.387e-03,-0.38,-0.36,-0.0012,0.0044
-1.385e-03,-0.38,-0.42,-0.002,-0.006
-1.383e-03,-0.38,-0.36,-0.002,0.0044
-1.381e-03,-0.38,-0.42,-0.0036,-0.006
-1.379e-03,-0.38,-0.36,-0.0012,0.0044
-1.377e-03,-0.38,-0.42,0.000399999,-0.0068
-1.375e-03,-0.36,-0.36,-0.000400001,0.0044
-1.373e-03,-0.38,-0.42,0.000399999,-0.006
-1.371e-03,-0.38,-0.34,-0.000400001,0.0036
-1.369e-03,-0.38,-0.42,0.000399999,-0.0076
-1.367e-03,-0.36,-0.34,-0.0012,0.0036
-1.365e-03,-0.36,-0.4,-0.002,-0.0068
-1.363e-03,-0.36,-0.34,-0.0012,0.0036
-1.362e-03,-0.38,-0.4,-0.0028,-0.0068
-1.360e-03,-0.36,-0.34,-0.0036,0.0044
-1.358e-03,-0.38,-0.4,0.000399999,-0.0076
-1.356e-03,-0.36,-0.34,-0.0012,0.0044
-1.354e-03,-0.36,-0.4,-0.002,-0.0068
-1.352e-03,-0.36,-0.34,-0.000400001,0.0036
-1.350e-03,-0.38,-0.4,-0.000400001,-0.0068
-1.348e-03,-0.36,-0.34,-0.0012,0.0052
-1.346e-03,-0.38,-0.4,-0.0012,-0.006
-1.344e-03,-0.36,-0.34,-0.0012,0.0044
-1.342e-03,-0.36,-0.4,0.0036,-0.006
-1.340e-03,-0.38,-0.34,-0.0012,0.0044
-1.339e-03,-0.36,-0.4,-0.0036,-0.0068
-1.337e-03,-0.36,-0.34,-0.000400001,0.0052
-1.335e-03,-0.36,-0.4,-0.0036,-0.006
-1.333e-03,-0.36,-0.34,-0.0012,0.0044
-1.331e-03,-0.36,-0.4,-0.002,-0.006
-1.329e-03,-0.36,-0.34,-0.0028,0.0044
-1.327e-03,-0.36,-0.4,-0.002,-0.006
-1.325e-03,-0.36,-0.34,0.002,0.0044
-1.323e-03,-0.38,-0.4,-0.002,-0.006
-1.321e-03,-0.36,-0.34,-0.000400001,0.0036
-1.319e-03,-0.36,-0.4,-0.0036,-0.0068
-1.317e-03,-0.34,-0.34,-0.002,0.0036
-1.315e-03,-0.38,-0.4,0.0036,-0.006
-1.314e-03,-0.36,-0.34,-0.0012,0.0044
-1.312e-03,-0.36,-0.38,0.000399999,-0.006
-1.310e-03,-0.36,-0.32,-0.000400001,0.0044
-1.308e-03,-0.34,-0.4,-0.0044,-0.006
-1.306e-03,-0.36,-0.32,-0.000400001,0.0036
-1.304e-03,-0.34,-0.38,0.0012,-0.006
-1.302e-03,-0.34,-0.32,-0.000400001,0.0052
-1.300e-03,-0.36,-0.4,-0.0036,-0.006
-1.298e-03,-0.34,-0.32,-0.0012,0.0052
-1.296e-03,-0.36,-0.4,-0.0036,-0.0068
-1.294e-03,-0.34,-0.32,-0.0012,0.006
-1.292e-03,-0.34,-0.38,-0.000400001,-0.0052
-1.291e-03,-0.34,-0.32,-0.0012,0.0052
-1.289e-03,-0.36,-0.38,0.000399999,-0.0052
-1.287e-03,-0.34,-0.32,-0.000400001,0.0052
-1.285e-03,-0.34,-0.38,-0.000400001,-0.0052
-1.283e-03,-0.36,-0.32,0.000399999,0.0052
-1.281e-03,-0.32,-0.38,-0.000400001,-0.0068
-1.279e-03,-0.34,-0.32,-0.0012,0.0052
-1.277e-03,-0.36,-0.38,-0.0044,-0.0044
-1.275e-03,-0.34,-0.32,-0.000400001,0.0052
-1.273e-03,-0.34,-0.38,-0.002,-0.0044
-1.271e-03,-0.34,-0.32,0.000399999,0.0044
-1.269e-03,-0.34,-0.38,-0.0012,-0.006
-1.267e-03,-0.34,-0.32,0.000399999,0.006
-1.266e-03,-0.34,-0.38,0.0012,-0.0044
-1.264e-03,-0.34,-0.32,0.002,0.0052
-1.262e-03,-0.34,-0.38,0.0012,-0.0044
-1.260e-03,-0.34,-0.32,-0.000400001,0.0052
-1.258e-03,-0.34,-0.38,0.0012,-0.0036
-1.256e-03,-0.32,-0.32,-0.000400001,0.006
-1.254e-03,-0.34,-0.38,-0.000400001,-0.0036
-1.252e-03,-0.34,-0.32,0.002,0.0068
-1.250e-03,-0.34,-0.38,0.002,-0.0036
-1.248e-03,-0.34,-0.3,0.0028,0.0076
-1.246e-03,-0.32,-0.38,-0.000400001,-0.0028
-1.244e-03,-0.34,-0.32,0.006,0.0068
-1.243e-03,-0.34,-0.38,-0.0012,-0.0028
-1.241e-03,-0.36,-0.32,0.0044,0.0084
-1.239e-03,-0.34,-0.38,0.0028,-0.0012
-1.237e-03,-0.34,-0.3,0.006,0.0084
-1.235e-03,-0.34,-0.36,0.0028,-0.000400001
-1.233e-03,-0.32,-0.3,0.002,0.0092
-1.231e-03,-0.32,-0.36,0.0068,0.0012
-1.229e-03,-0.32,-0.32,0.0052,0.01
-1.227e-03,-0.32,-0.38,0.0068,0.002
-1.225e-03,-0.34,-0.32,0.01,0.0132
-1.223e-03,-0.32,-0.36,0.0068,0.002
-1.221e-03,-0.32,-0.3,0.0084,0.0132
-1.219e-03,-0.34,-0.36,0.0092,0.0036
-1.218e-03,-0.32,-0.3,0.0108,0.0156
-1.216e-03,-0.34,-0.38,0.0124,0.006
-1.214e-03,-0.34,-0.3,0.0116,0.018
-1.212e-03,-0.34,-0.36,0.0148,0.0068
-1.210e-03,-0.32,-0.3,0.0156,0.0212
-1.208e-03,-0.32,-0.36,0.018,0.0124
-1.206e-03,-0.32,-0.3,0.018,0.0236
-1.204e-03,-0.3,-0.36,0.0188,0.0148
-1.202e-03,-0.32,-0.3,0.0204,0.026
-1.200e-03,-0.34,-0.36,0.0204,0.0164
-1.198e-03,-0.34,-0.3,0.0252,0.0284
-1.196e-03,-0.32,-0.36,0.0268,0.0204
-1.195e-03,-0.32,-0.3,0.0268,0.0316
-1.193e-03,-0.34,-0.36,0.0268,0.0228
-1.191e-03,-0.32,-0.3,0.0268,0.0324
-1.189e-03,-0.32,-0.36,0.0268,0.022
-1.187e-03,-0.32,-0.3,0.0276,0.0316
-1.185e-03,-0.3,-0.36,0.0276,0.0196
-1.183e-03,-0.32,-0.3,0.0252,0.0308
-1.181e-03,-0.32,-0.36,0.0204,0.018
-1.179e-03,-0.3,-0.3,0.022,0.0284
-1.177e-03,-0.32,-0.36,0.0196,0.0148
-1.175e-03,-0.32,-0.28,0.0172,0.0268
-1.173e-03,-0.3,-0.34,0.0148,0.0116
-1.171e-03,-0.32,-0.28,0.0188,0.0236
-1.170e-03,-0.3,-0.34,0.0116,0.0092
-1.168e-03,-0.32,-0.28,0.0148,0.0212
-1.166e-03,-0.32,-0.36,0.014,0.0068
-1.164e-03,-0.32,-0.3,0.0124,0.018
-1.162e-03,-0.3,-0.36,0.0092,0.0036
-1.160e-03,-0.3,-0.28,0.0084,0.0164
-1.158e-03,-0.32,-0.34,0.0068,0.0036
-1.156e-03,-0.3,-0.3,0.0076,0.014
-1.154e-03,-0.3,-0.34,0.0076,0.0028
-1.152e-03,-0.32,-0.28,0.0076,0.0116
-1.150e-03,-0.32,-0.36,0.006,-0.0012
-1.148e-03,-0.32,-0.28,0.002,0.0124
-1.147e-03,-0.3,-0.36,0.0076,-0.000400001
-1.145e-03,-0.32,-0.28,0.0052,0.0108
-1.143e-03,-0.32,-0.34,0.0044,-0.002
-1.141e-03,-0.3,-0.28,0.0044,0.0108
-1.139e-03,-0.32,-0.34,0.0028,-0.002
-1.137e-03,-0.3,-0.28,0.002,0.0076
-1.135e-03,-0.3,-0.34,0.0012,-0.0044
-1.133e-03,-0.3,-0.28,0.002,0.0076
-1.131e-03,-0.3,-0.34,0.0012,-0.0036
-1.129e-03,-0.3,-0.28,0.002,0.0084
-1.127e-03,-0.3,-0.34,0.002,-0.0028
-1.125e-03,-0.3,-0.28,0.0012,0.0076
-1.123e-03,-0.3,-0.34,0.0012,-0.0028
-1.122e-03,-0.32,-0.28,0.002,0.0068
-1.120e-03,-0.3,-0.34,0.000399999,-0.0044
-1.118e-03,-0.3,-0.28,-0.0012,0.0068
-1.116e-03,-0.32,-0.34,-0.000400001,-0.0044
-1.114e-03,-0.3,-0.28,0.002,0.0076
-1.112e-03,-0.3,-0.34,-0.000400001,-0.0036
-1.110e-03,-0.28,-0.28,0.0012,0.006
-1.108e-03,-0.3,-0.34,0.0012,-0.0044
-1.106e-03,-0.3,-0.28,-0.0012,0.006
-1.104e-03,-0.3,-0.34,-0.0012,-0.0052
-1.102e-03,-0.3,-0.28,0.0012,0.006
-1.100e-03,-0.28,-0.34,0.002,-0.0052
-1.099e-03,-0.3,-0.28,0.000399999,0.0052
-1.097e-03,-0.3,-0.32,0.000399999,-0.0044
-1.095e-03,-0.3,-0.28,-0.0012,0.006
-1.093e-03,-0.28,-0.34,-0.0028,-0.0044
-1.091e-03,-0.28,-0.26,-0.000400001,0.0044
-1.089e-03,-0.3,-0.32,0.000399999,-0.0052
-1.087e-03,-0.3,-0.26,-0.0012,0.0044
-1.085e-03,-0.28,-0.32,0.000399999,-0.006
-1.083e-03,-0.3,-0.26,-0.000400001,0.0052
-1.081e-03,-0.28,-0.32,-0.0028,-0.0044
-1.079e-03,-0.3,-0.26,0.002,0.0052
-1.077e-03,-0.28,-0.32,0.0012,-0.0068
-1.075e-03,-0.3,-0.26,0.000399999,0.006
-1.074e-03,-0.3,-0.32,-0.0028,-0.0076
-1.072e-03,-0.3,-0.26,0.000399999,0.0044
-1.070e-03,-0.28,-0.32,0.0012,-0.006
-1.068e-03,-0.3,-0.26,-0.0012,0.0044
-1.066e-03,-0.28,-0.32,-0.0028,-0.006
-1.064e-03,-0.28,-0.26,0.000399999,0.0068
-1.062e-03,-0.3,-0.32,-0.002,-0.0052
-1.060e-03,-0.28,-0.26,-0.002,0.0052
-1.058e-03,-0.26,-0.32,-0.002,-0.0044
-1.056e-03,-0.28,-0.26,-0.0036,0.0052
-1.054e-03,-0.28,-0.32,-0.0012,-0.006
-1.052e-03,-0.28,-0.26,0.000399999,0.0044
-1.051e-03,-0.28,-0.32,-0.000400001,-0.0052
-1.049e-03,-0.28,-0.26,-0.0012,0.0044
-1.047e-03,-0.28,-0.32,-0.0012,-0.0052
-1.045e-03,-0.26,-0.26,-0.000400001,0.0044
-1.043e-03,-0.28,-0.32,-0.002,-0.006
-1.041e-03,-0.28,-0.26,-0.0012,0.0052
-1.039e-03,-0.3,-0.32,0.000399999,-0.0052
-1.037e-03,-0.28,-0.26,0.000399999,0.0052
-1.035e-03,-0.28,-0.32,-0.0012,-0.0052
-1.033e-03,-0.28,-0.26,-0.002,0.0044
-1.031e-03,-0.26,-0.32,0.002,-0.006
-1.029e-03,-0.28,-0.26,0.000399999,0.0052
-1.027e-03,-0.28,-0.32,-0.002,-0.006
-1.026e-03,-0.28,-0.24,-0.0028,0.0044
-1.024e-03,-0.28,-0.3,-0.002,-0.006
-1.022e-03,-0.28,-0.26,0.0012,0.0044
-1.020e-03,-0.28,-0.32,-0.000400001,-0.0068
-1.018e-03,-0.28,-0.26,-0.0012,0.0044
-1.016e-03,-0.26,-0.3,-0.002,-0.006
-1.014e-03,-0.28,-0.26,-0.0012,0.0044
-1.012e-03,-0.28,-0.3,-0.002,-0.0052
-1.010e-03,-0.28,-0.26,-0.0036,0.0044
-1.008e-03,-0.28,-0.3,-0.002,-0.006
-1.006e-03,-0.26,-0.24,-0.002,0.0044
-1.004e-03,-0.26,-0.3,0.000399999,-0.006
-1.003e-03,-0.26,-0.24,-0.002,0.0036
-1.001e-03,-0.28,-0.32,-0.002,-0.0068
-9.987e-04,-0.26,-0.24,-0.002,0.0036
-9.967e-04,-0.26,-0.3,-0.002,-0.006
-9.948e-04,-0.26,-0.24,-0.002,0.0044
-9.929e-04,-0.26,-0.32,-0.002,-0.006
-9.910e-04,-0.26,-0.24,-0.0036,0.0044
-9.891e-04,-0.26,-0.3,0.000399999,-0.006
-9.871e-04,-0.28,-0.24,0.000399999,0.0044
-9.852e-04,-0.26,-0.3,0.000399999,-0.0068
-9.833e-04,-0.26,-0.24,-0.000400001,0.0044
-9.814e-04,-0.26,-0.3,-0.0036,-0.0052
-9.795e-04,-0.26,-0.24,-0.0028,0.006
-9.775e-04,-0.26,-0.3,-0.0036,-0.006
-9.756e-04,-0.26,-0.24,-0.0012,0.0036
-9.737e-04,-0.26,-0.3,-0.002,-0.0068
-9.718e-04,-0.26,-0.24,-0.002,0.0052
-9.699e-04,-0.28,-0.3,-0.002,-0.0068
-9.679e-04,-0.26,-0.24,-0.000400001,0.0028
-9.660e-04,-0.26,-0.3,0.002,-0.006
-9.641e-04,-0.26,-0.24,-0.0012,0.006
-9.622e-04,-0.28,-0.3,0.000399999,-0.006
-9.603e-04,-0.26,-0.24,-0.002,0.0044
-9.583e-04,-0.26,-0.3,-0.0028,-0.006
-9.564e-04,-0.28,-0.24,-0.0012,0.0036
-9.545e-04,-0.26,-0.3,0.0012,-0.0076
-9.526e-04,-0.24,-0.24,-0.002,0.0036
-9.507e-04,-0.26,-0.28,-0.0044,-0.006
-9.487e-04,-0.26,-0.24,-0.000400001,0.0036
-9.468e-04,-0.26,-0.3,0.0012,-0.0052
-9.449e-04,-0.26,-0.24,-0.000400001,0.0036
-9.430e-04,-0.24,-0.28,-0.002,-0.006
-9.411e-04,-0.26,-0.24,-0.000400001,0.0036
-9.391e-04,-0.24,-0.28,-0.0028,-0.006
-9.372e-04,-0.24,-0.22,-0.0012,0.0036
-9.353e-04,-0.26,-0.28,-0.0028,-0.006
-9.334e-04,-0.26,-0.24,-0.0012,0.0036
-9.315e-04,-0.24,-0.28,-0.000400001,-0.006
-9.295e-04,-0.26,-0.22,-0.000400001,0.0036
-9.276e-04,-0.26,-0.28,-0.0068,-0.0076
-9.257e-04,-0.24,-0.22,-0.0028,0.0036
-9.238e-04,-0.26,-0.28,-0.0012,-0.006
-9.219e-04,-0.24,-0.22,-0.0012,0.0036
-9.199e-04,-0.26,-0.28,-0.0012,-0.006
-9.180e-04,-0.26,-0.22,-0.0028,0.0044
-9.161e-04,-0.26,-0.28,0.000399999,-0.0052
-9.142e-04,-0.24,-0.22,0.002,0.0036
-9.123e-04,-0.26,-0.28,-0.002,-0.0068
-9.103e-04,-0.24,-0.22,0.0012,0.0044
-9.084e-04,-0.24,-0.28,-0.0012,-0.0076
-9.065e-04,-0.24,-0.22,-0.0012,0.0044
-9.046e-04,-0.24,-0.28,-0.0036,-0.006
-9.027e-04,-0.24,-0.22,-0.002,0.0044
-9.007e-04,-0.24,-0.28,-0.002,-0.0068
-8.988e-04,-0.24,-0.22,-0.0036,0.0028
-8.969e-04,-0.24,-0.26,-0.0012,-0.0068
-8.950e-04,-0.24,-0.22,-0.000400001,0.006
-8.931e-04,-0.24,-0.28,0.000399999,-0.006
-8.911e-04,-0.24,-0.22,-0.0012,0.0036
-8.892e-04,-0.24,-0.28,-0.0012,-0.0084
-8.873e-04,-0.24,-0.2,-0.0028,0.0036
-8.854e-04,-0.24,-0.26,-0.0012,-0.006
-8.835e-04,-0.24,-0.22,-0.000400001,0.0044
-8.815e-04,-0.24,-0.26,-0.000400001,-0.006
-8.796e-04,-0.24,-0.22,-0.002,0.0052
-8.777e-04,-0.24,-0.26,-0.000400001,-0.0068
-8.758e-04,-0.24,-0.2,-0.002,0.0044
-8.739e-04,-0.26,-0.26,-0.002,-0.0068
-8.719e-04,-0.24,-0.2,-0.0044,0.0036
-8.700e-04,-0.24,-0.26,-0.002,-0.0068
-8.681e-04,-0.24,-0.22,0.000399999,0.0044
-8.662e-04,-0.24,-0.26,-0.000400001,-0.0076
-8.643e-04,-0.24,-0.22,0.0012,0.0044
-8.623e-04,-0.22,-0.26,-0.0036,-0.006
-8.604e-04,-0.22,-0.2,0.0036,0.0044
-8.585e-04,-0.22,-0.26,-0.0012,-0.0068
-8.566e-04,-0.22,-0.2,-0.000400001,0.0052
-8.547e-04,-0.24,-0.26,-0.0012,-0.006
-8.527e-04,-0.24,-0.2,-0.0028,0.0044
-8.508e-04,-0.24,-0.26,0.000399999,-0.0068
-8.489e-04,-0.22,-0.2,-0.002,0.0044
-8.470e-04,-0.22,-0.26,-0.002,-0.006
-8.451e-04,-0.22,-0.2,-0.0012,0.0028
-8.431e-04,-0.22,-0.26,-0.0028,-0.006
-8.412e-04,-0.22,-0.2,-0.0028,0.0044
-8.393e-04,-0.22,-0.26,0.000399999,-0.006
-8.374e-04,-0.24,-0.2,-0.000400001,0.0044
-8.355e-04,-0.22,-0.26,-0.0012,-0.0068
-8.335e-04,-0.24,-0.2,-0.0012,0.0036
-8.316e-04,-0.22,-0.24,-0.0036,-0.0076
-8.297e-04,-0.22,-0.2,-0.000400001,0.0044
-8.278e-04,-0.22,-0.26,-0.002,-0.006
-8.259e-04,-0.2,-0.2,-0.000400001,0.006
-8.239e-04,-0.22,-0.26,-0.002,-0.0068
-8.220e-04,-0.22,-0.2,-0.002,0.0052
-8.201e-04,-0.22,-0.24,0.000399999,-0.0076
-8.182e-04,-0.22,-0.2,0.000399999,0.0036
-8.163e-04,-0.22,-0.26,-0.0028,-0.006
-8.143e-04,-0.22,-0.2,-0.0036,0.0044
-8.124e-04,-0.22,-0.26,-0.0012,-0.006
-8.105e-04,-0.22,-0.2,0.000399999,0.0052
-8.086e-04,-0.24,-0.24,0.002,-0.006
-8.067e-04,-0.22,-0.2,0.000399999,0.0052
-8.047e-04,-0.22,-0.24,-0.0012,-0.006
-8.028e-04,-0.22,-0.2,-0.0028,0.0052
-8.009e-04,-0.22,-0.24,0.0012,-0.006
-7.990e-04,-0.22,-0.2,0.000399999,0.0044
-7.971e-04,-0.22,-0.24,0.0012,-0.006
-7.951e-04,-0.22,-0.2,-0.002,0.0044
-7.932e-04,-0.2,-0.24,0.0012,-0.006
-7.913e-04,-0.22,-0.18,-0.0012,0.0052
-7.894e-04,-0.2,-0.24,-0.000400001,-0.006
-7.875e-04,-0.2,-0.18,-0.0028,0.0036
-7.855e-04,-0.22,-0.24,-0.0052,-0.0068
-7.836e-04,-0.2,-0.18,-0.0036,0.0036
-7.817e-04,-0.2,-0.24,-0.0012,-0.0052
-7.798e-04,-0.2,-0.18,0.0012,0.0044
-7.778e-04,-0.22,-0.24,-0.0028,-0.006
-7.759e-04,-0.18,-0.18,0.0012,0.0036
-7.740e-04,-0.2,-0.24,0.000399999,-0.006
-7.721e-04,-0.2,-0.18,-0.000400001,0.0036
-7.702e-04,-0.2,-0.24,-0.002,-0.0068
-7.682e-04,-0.2,-0.18,0.0028,0.0044
-7.663e-04,-0.2,-0.24,-0.002,-0.006
-7.644e-04,-0.22,-0.18,-0.002,0.0044
-7.625e-04,-0.2,-0.24,-0.002,-0.006
-7.606e-04,-0.2,-0.18,-0.0012,0.0028
-7.586e-04,-0.2,-0.24,0.002,-0.0052
-7.567e-04,-0.2,-0.18,-0.0028,0.0044
-7.548e-04,-0.22,-0.22,-0.0012,-0.006
-7.529e-04,-0.22,-0.18,-0.0028,0.0044
-7.510e-04,-0.2,-0.24,-0.0012,-0.0068
-7.490e-04,-0.2,-0.18,-0.000400001,0.0044
-7.471e-04,-0.22,-0.24,-0.0012,-0.006
-7.452e-04,-0.18,-0.18,0.000399999,0.006
-7.433e-04,-0.2,-0.22,-0.002,-0.006
-7.414e-04,-0.2,-0.18,-0.0012,0.0044
-7.394e-04,-0.2,-0.22,-0.000400001,-0.0052
-7.375e-04,-0.2,-0.18,-0.002,0.0044
-7.356e-04,-0.2,-0.24,-0.000400001,-0.0068
-7.337e-04,-0.2,-0.18,-0.002,0.0036
-7.318e-04,-0.18,-0.22,0.000399999,-0.0068
-7.298e-04,-0.18,-0.16,-0.0012,0.0044
-7.279e-04,-0.2,-0.22,-0.0036,-0.006
-7.260e-04,-0.2,-0.16,-0.0012,0.0044
-7.241e-04,-0.2,-0.22,-0.0012,-0.0076
-7.222e-04,-0.2,-0.16,-0.0052,0.0036
-7.202e-04,-0.18,-0.22,-0.000400001,-0.0052
-7.183e-04,-0.2,-0.16,0.000399999,0.0036
-7.164e-04,-0.2,-0.22,-0.0012,-0.0076
-7.145e-04,-0.18,-0.16,-0.002,0.0044
-7.126e-04,-0.2,-0.22,-0.000400001,-0.0068
-7.106e-04,-0.2,-0.16,-0.0028,0.0036
-7.087e-04,-0.18,-0.22,-0.000400001,-0.006
-7.068e-04,-0.18,-0.16,-0.0012,0.0044
-7.049e-04,-0.2,-0.22,0.000399999,-0.0052
-7.030e-04,-0.16,-0.16,-0.0012,0.0044
-7.010e-04,-0.18,-0.22,-0.0012,-0.0068
-6.991e-04,-0.18,-0.16,-0.0012,0.0044
-6.972e-04,-0.18,-0.22,0.0036,-0.006
-6.953e-04,-0.18,-0.16,-0.002,0.0052
-6.934e-04,-0.18,-0.22,0.000399999,-0.006
-6.914e-04,-0.18,-0.16,-0.0012,0.0052
-6.895e-04,-0.18,-0.22,-0.0012,-0.006
-6.876e-04,-0.18,-0.16,-0.0028,0.0052
-6.857e-04,-0.18,-0.2,-0.000400001,-0.006
-6.838e-04,-0.18,-0.16,-0.002,0.0036
-6.818e-04,-0.18,-0.22,-0.002,-0.006
-6.799e-04,-0.18,-0.16,-0.000400001,0.0044
-6.780e-04,-0.18,-0.22,-0.002,-0.006
-6.761e-04,-0.18,-0.16,-0.002,0.0036
-6.742e-04,-0.16,-0.22,-0.000400001,-0.006
-6.722e-04,-0.18,-0.16,-0.000400001,0.0044
-6.703e-04,-0.16,-0.2,-0.0028,-0.0068
-6.684e-04,-0.16,-0.14,0.000399999,0.0044
-6.665e-04,-0.18,-0.2,-0.0028,-0.006
-6.646e-04,-0.18,-0.14,0.002,0.0036
-6.626e-04,-0.16,-0.2,-0.0012,-0.0068
-6.607e-04,-0.18,-0.14,-0.0012,0.0044
-6.588e-04,-0.18,-0.2,-0.0044,-0.006
-6.569e-04,-0.16,-0.14,-0.000400001,0.0044
-6.550e-04,-0.18,-0.2,-0.0036,-0.0068
-6.530e-04,-0.16,-0.14,-0.0028,0.0044
-6.511e-04,-0.16,-0.2,-0.000400001,-0.006
-6.492e-04,-0.16,-0.14,-0.002,0.0044
-6.473e-04,-0.16,-0.2,-0.002,-0.0068
-6.454e-04,-0.18,-0.14,0.0028,0.0044
-6.434e-04,-0.16,-0.2,-0.0028,-0.0052
-6.415e-04,-0.16,-0.14,-0.0012,0.0044
-6.396e-04,-0.18,-0.2,-0.0052,-0.0068
-6.377e-04,-0.18,-0.14,0.0012,0.0044
-6.358e-04,-0.18,-0.2,0.0012,-0.006
-6.338e-04,-0.18,-0.14,-0.0012,0.0044
-6.319e-04,-0.16,-0.2,-0.000400001,-0.0052
-6.300e-04,-0.16,-0.14,-0.0028,0.0036
-6.281e-04,-0.18,-0.2,0.002,-0.0068
-6.262e-04,-0.18,-0.14,-0.000400001,0.0052
-6.242e-04,-0.16,-0.2,-0.0028,-0.0068
-6.223e-04,-0.16,-0.14,0.002,0.0036
-6.204e-04,-0.16,-0.2,-0.000400001,-0.006
-6.185e-04,-0.16,-0.14,-0.0012,0.0044
-6.166e-04,-0.16,-0.18,-0.0012,-0.006
-6.146e-04,-0.16,-0.14,0.0012,0.0036
-6.127e-04,-0.16,-0.2,-0.002,-0.006
-6.108e-04,-0.16,-0.14,-0.000400001,0.0036
-6.089e-04,-0.16,-0.18,0.002,-0.006
-6.070e-04,-0.16,-0.14,-0.000400001,0.0052
-6.050e-04,-0.16,-0.2,-0.002,-0.0052
-6.031e-04,-0.16,-0.14,-0.0028,0.0044
-6.012e-04,-0.18,-0.2,-0.000400001,-0.0076
-5.993e-04,-0.14,-0.14,-0.0012,0.0036
-5.974e-04,-0.16,-0.2,-0.0044,-0.0076
-5.954e-04,-0.14,-0.14,-0.0036,0.0044
-5.935e-04,-0.16,-0.18,-0.0012,-0.006
-5.916e-04,-0.16,-0.12,-0.0012,0.0044
-5.897e-04,-0.14,-0.2,-0.0044,-0.0068
-5.878e-04,-0.14,-0.14,-0.000400001,0.0044
-5.858e-04,-0.16,-0.18,-0.0036,-0.006
-5.839e-04,-0.14,-0.14,-0.002,0.0036
-5.820e-04,-0.14,-0.18,-0.000400001,-0.0068
-5.801e-04,-0.14,-0.12,-0.0012,0.006
-5.782e-04,-0.16,-0.18,-0.0036,-0.006
-5.762e-04,-0.14,-0.12,0.000399999,0.0052
-5.743e-04,-0.16,-0.18,-0.0012,-0.006
-5.724e-04,-0.16,-0.12,-0.0012,0.0044
-5.705e-04,-0.16,-0.18,-0.0012,-0.006
-5.686e-04,-0.14,-0.12,0.0012,0.0036
-5.666e-04,-0.16,-0.18,-0.000400001,-0.006
-5.647e-04,-0.16,-0.12,0.000399999,0.0052
-5.628e-04,-0.14,-0.18,-0.000400001,-0.0052
-5.609e-04,-0.16,-0.12,-0.000400001,0.0036
-5.590e-04,-0.16,-0.18,-0.0012,-0.006
-5.570e-04,-0.14,-0.12,-0.0012,0.0044
-5.551e-04,-0.12,-0.18,-0.0028,-0.006
-5.532e-04,-0.16,-0.12,-0.0028,0.0036
-5.513e-04,-0.14,-0.18,-0.000400001,-0.006
-5.494e-04,-0.16,-0.12,-0.002,0.0044
-5.474e-04,-0.14,-0.16,0.002,-0.006
-5.455e-04,-0.14,-0.12,-0.002,0.0044
-5.436e-04,-0.14,-0.18,-0.000400001,-0.006
-5.417e-04,-0.14,-0.12,0.0012,0.0044
-5.398e-04,-0.14,-0.18,-0.0036,-0.0052
-5.378e-04,-0.14,-0.12,-0.0028,0.0036
-5.359e-04,-0.14,-0.16,-0.0012,-0.0068
-5.340e-04,-0.14,-0.12,-0.0028,0.0044
-5.321e-04,-0.14,-0.18,0.000399999,-0.0068
-5.302e-04,-0.14,-0.12,0.002,0.0044
-5.282e-04,-0.16,-0.18,-0.0012,-0.006
-5.263e-04,-0.14,-0.1,-0.0012,0.0044
-5.244e-04,-0.14,-0.16,0.0012,-0.0052
-5.225e-04,-0.14,-0.1,-0.002,0.0036
-5.206e-04,-0.14,-0.16,-0.0012,-0.0068
-5.186e-04,-0.12,-0.1,0.000399999,0.0068
-5.167e-04,-0.14,-0.16,-0.0028,-0.006
-5.148e-04,-0.14,-0.12,-0.000400001,0.0036
-5.129e-04,-0.14,-0.16,-0.002,-0.0068
-5.110e-04,-0.14,-0.1,0.0012,0.0036
-5.090e-04,-0.12,-0.16,-0.0036,-0.006
-5.071e-04,-0.12,-0.1,0.0012,0.0044
-5.052e-04,-0.14,-0.16,0.0012,-0.006
-5.033e-04,-0.12,-0.1,-0.0036,0.0052
-5.014e-04,-0.14,-0.16,-0.0012,-0.0068
-4.994e-04,-0.12,-0.1,-0.000400001,0.0052
-4.975e-04,-0.12,-0.16,-0.002,-0.0068
-4.956e-04,-0.14,-0.1,-0.0036,0.0044
-4.937e-04,-0.12,-0.16,-0.0028,-0.0052
-4.918e-04,-0.14,-0.1,-0.002,0.0044
-4.898e-04,-0.12,-0.16,-0.000400001,-0.0068
-4.879e-04,-0.14,-0.1,-0.002,0.0044
-4.860e-04,-0.12,-0.16,-0.002,-0.0068
-4.841e-04,-0.14,-0.1,-0.0044,0.0044
-4.822e-04,-0.12,-0.16,0.002,-0.0068
-4.802e-04,-0.12,-0.1,-0.000400001,0.0044
-4.783e-04,-0.12,-0.16,-0.000400001,-0.006
-4.764e-04,-0.12,-0.1,0.0028,0.0044
-4.745e-04,-0.12,-0.16,-0.002,-0.006
-4.725e-04,-0.12,-0.1,-0.000400001,0.0052
-4.706e-04,-0.12,-0.16,-0.0012,-0.0052
-4.687e-04,-0.12,-0.1,-0.000400001,0.0044
-4.668e-04,-0.12,-0.16,-0.000400001,-0.0052
-4.649e-04,-0.12,-0.1,-0.000400001,0.006
-4.629e-04,-0.12,-0.14,-0.000400001,-0.0052
-4.610e-04,-0.12,-0.1,0.002,0.0052
-4.591e-04,-0.14,-0.14,-0.000400001,-0.006
-4.572e-04,-0.1,-0.1,-0.0012,0.0052
-4.553e-04,-0.12,-0.14,-0.0012,-0.006
-4.533e-04,-0.12,-0.1,-0.002,0.006
-4.514e-04,-0.1,-0.16,-0.0012,-0.006
-4.495e-04,-0.1,-0.1,-0.0012,0.0036
-4.476e-04,-0.12,-0.14,0.000399999,-0.006
-4.457e-04,-0.12,-0.1,-0.0012,0.0052
-4.437e-04,-0.12,-0.14,-0.000400001,-0.0052
-4.418e-04,-0.12,-0.08,-0.0012,0.0044
-4.399e-04,-0.1,-0.14,-0.000400001,-0.0052
-4.380e-04,-0.1,-0.1,0.0012,0.0044
-4.361e-04,-0.12,-0.14,-0.0012,-0.006
-4.341e-04,-0.12,-0.1,-0.0036,0.0044
-4.322e-04,-0.12,-0.14,-0.0012,-0.0068
-4.303e-04,-0.12,-0.1,-0.002,0.0044
-4.284e-04,-0.12,-0.14,-0.0028,-0.006
-4.265e-04,-0.12,-0.08,-0.0028,0.0044
-4.245e-04,-0.1,-0.14,-0.002,-0.006
-4.226e-04,-0.1,-0.08,-0.000400001,0.006
-4.207e-04,-0.1,-0.14,0.002,-0.0052
-4.188e-04,-0.1,-0.08,-0.0012,0.0052
-4.169e-04,-0.1,-0.14,-0.000400001,-0.006
-4.149e-04,-0.1,-0.08,0.0012,0.0044
-4.130e-04,-0.1,-0.14,0.002,-0.006
-4.111e-04,-0.12,-0.08,0.0012,0.0052
-4.092e-04,-0.1,-0.14,-0.000400001,-0.006
-4.073e-04,-0.1,-0.08,0.0012,0.0044
-4.053e-04,-0.1,-0.14,0.0012,-0.0052
-4.034e-04,-0.1,-0.08,-0.002,0.0052
-4.015e-04,-0.1,-0.14,-0.002,-0.0068
-3.996e-04,-0.08,-0.08,-0.002,0.0036
-3.977e-04,-0.1,-0.12,0.002,-0.0052
-3.957e-04,-0.1,-0.08,0.002,0.0044
-3.938e-04,-0.12,-0.14,0.0012,-0.0052
-3.919e-04,-0.1,-0.08,-0.000400001,0.0052
-3.900e-04,-0.1,-0.14,-0.0012,-0.0052
-3.881e-04,-0.1,-0.08,-0.0012,0.0052
-3.861e-04,-0.1,-0.14,0.0012,-0.0052
-3.842e-04,-0.1,-0.08,-0.0012,0.0044
-3.823e-04,-0.1,-0.12,-0.000400001,-0.0068
-3.804e-04,-0.1,-0.08,-0.002,0.0044
-3.785e-04,-0.08,-0.12,-0.0012,-0.006
-3.765e-04,-0.1,-0.08,0.0012,0.0044
-3.746e-04,-0.1,-0.14,0.000399999,-0.0052
-3.727e-04,-0.08,-0.08,-0.000400001,0.0052
-3.708e-04,-0.1,-0.12,0.000399999,-0.006
-3.689e-04,-0.1,-0.08,-0.000400001,0.0044
-3.669e-04,-0.1,-0.12,0.002,-0.0052
-3.650e-04,-0.1,-0.06,-0.000400001,0.0052
-3.631e-04,-0.1,-0.12,-0.0012,-0.0052
-3.612e-04,-0.08,-0.08,0.000399999,0.0044
-3.593e-04,-0.1,-0.12,0.000399999,-0.0044
-3.573e-04,-0.08,-0.08,0.002,0.0044
-3.554e-04,-0.08,-0.12,0.002,-0.0052
-3.535e-04,-0.1,-0.06,0.002,0.0052
-3.516e-04,-0.08,-0.12,0.000399999,-0.006
-3.497e-04,-0.08,-0.08,-0.002,0.0052
-3.477e-04,-0.08,-0.12,-0.000400001,-0.0052
-3.458e-04,-0.08,-0.08,-0.000400001,0.006
-3.439e-04,-0.08,-0.12,-0.0012,-0.0044
-3.420e-04,-0.1,-0.06,-0.0012,0.0052
-3.401e-04,-0.08,-0.12,-0.000400001,-0.0044
-3.381e-04,-0.08,-0.06,0.0036,0.006
-3.362e-04,-0.1,-0.12,0.000399999,-0.0044
-3.343e-04,-0.08,-0.06,-0.0036,0.0052
-3.324e-04,-0.08,-0.12,0.0012,-0.0052
-3.305e-04,-0.08,-0.06,-0.0012,0.0052
-3.285e-04,-0.08,-0.12,-0.000400001,-0.006
-3.266e-04,-0.08,-0.06,-0.0044,0.0052
-3.247e-04,-0.06,-0.1,-0.000400001,-0.0044
-3.228e-04,-0.08,-0.06,-0.0028,0.006
-3.209e-04,-0.08,-0.12,-0.000400001,-0.0044
-3.189e-04,-0.08,-0.06,0.000399999,0.006
-3.170e-04,-0.08,-0.12,0.002,-0.0044
-3.151e-04,-0.1,-0.06,-0.000400001,0.0052
-3.132e-04,-0.08,-0.1,-0.0012,-0.006
-3.113e-04,-0.06,-0.06,0.000399999,0.0044
-3.093e-04,-0.08,-0.1,0.0012,-0.0052
-3.074e-04,-0.08,-0.06,0.0012,0.0068
-3.055e-04,-0.08,-0.1,0.0012,-0.0044
-3.036e-04,-0.08,-0.06,0.000399999,0.006
-3.017e-04,-0.08,-0.1,-0.000400001,-0.0036
-2.997e-04,-0.08,-0.06,0.002,0.006
-2.978e-04,-0.08,-0.1,0.0012,-0.0044
-2.959e-04,-0.06,-0.06,-0.0012,0.006
-2.940e-04,-0.08,-0.1,-0.000400001,-0.0044
-2.921e-04,-0.08,-0.06,0.0012,0.006
-2.901e-04,-0.08,-0.1,-0.000400001,-0.0036
-2.882e-04,-0.08,-0.06,0.006,0.006
-2.863e-04,-0.08,-0.1,0.000399999,-0.0036
-2.844e-04,-0.08,-0.06,0.002,0.006
-2.825e-04,-0.08,-0.1,0.002,-0.0044
-2.805e-04,-0.08,-0.04,0.0036,0.0076
-2.786e-04,-0.06,-0.1,0.0012,-0.0036
-2.767e-04,-0.08,-0.04,0.0028,0.0068
-2.748e-04,-0.06,-0.1,0.0036,-0.0036
-2.729e-04,-0.08,-0.04,-0.000400001,0.0076
-2.709e-04,-0.06,-0.1,0.002,-0.0028
-2.690e-04,-0.06,-0.04,0.0012,0.0076
-2.671e-04,-0.08,-0.1,0.0028,-0.0036
-2.652e-04,-0.08,-0.04,0.0044,0.0076
-2.633e-04,-0.06,-0.1,-0.002,-0.0036
-2.613e-04,-0.06,-0.04,-0.000400001,0.0076
-2.594e-04,-0.06,-0.1,0.0044,-0.002
-2.575e-04,-0.06,-0.04,0.0012,0.0076
-2.556e-04,-0.06,-0.1,0.002,-0.0028
-2.537e-04,-0.06,-0.04,0.0052,0.0076
-2.517e-04,-0.06,-0.1,0.0036,-0.002
-2.498e-04,-0.06,-0.04,0.002,0.0084
-2.479e-04,-0.06,-0.08,0.000399999,-0.0028
-2.460e-04,-0.06,-0.04,0.0012,0.0092
-2.441e-04,-0.06,-0.1,0.0052,-0.0012
-2.421e-04,-0.06,-0.04,0.0044,0.0084
-2.402e-04,-0.06,-0.1,0.0036,-0.0012
-2.383e-04,-0.06,-0.04,0.0012,0.0108
-2.364e-04,-0.06,-0.1,0.0036,-0.0012
-2.345e-04,-0.08,-0.04,0.006,0.0108
-2.325e-04,-0.06,-0.08,0.0028,-0.002
-2.306e-04,-0.04,-0.04,0.0036,0.0092
-2.287e-04,-0.06,-0.08,0.0028,-0.0012
-2.268e-04,-0.06,-0.04,0.002,0.01
-2.249e-04,-0.06,-0.08,0.0036,0.000399999
-2.229e-04,-0.06,-0.02,0.0076,0.01
-2.210e-04,-0.06,-0.08,0.0052,0.000399999
-2.191e-04,-0.06,-0.02,0.0068,0.0108
-2.172e-04,-0.06,-0.08,0.0052,0.000399999
-2.153e-04,-0.06,-0.02,0.006,0.0116
-2.133e-04,-0.06,-0.08,0.0044,0.002
-2.114e-04,-0.04,-0.02,0.0084,0.014
-2.095e-04,-0.06,-0.08,0.01,0.0028
-2.076e-04,-0.04,-0.02,0.0092,0.0132
-2.057e-04,-0.06,-0.08,0.0092,0.0036
-2.037e-04,-0.04,-0.02,0.0068,0.0148
-2.018e-04,-0.06,-0.08,0.0108,0.0044
-1.999e-04,-0.06,-0.02,0.01,0.0148
-1.980e-04,-0.04,-0.08,0.0124,0.006
-1.961e-04,-0.06,-0.02,0.0116,0.018
-1.941e-04,-0.06,-0.08,0.014,0.0084
-1.922e-04,-0.04,-0.02,0.014,0.0204
-1.903e-04,-0.06,-0.08,0.0116,0.01
-1.884e-04,-0.06,-0.02,0.0148,0.0212
-1.865e-04,-0.04,-0.08,0.014,0.0116
-1.845e-04,-0.04,-0.02,0.0156,0.0236
-1.826e-04,-0.04,-0.08,0.0204,0.0132
-1.807e-04,-0.06,-0.02,0.0204,0.0252
-1.788e-04,-0.04,-0.08,0.0252,0.0164
-1.769e-04,-0.04,-0.02,0.026,0.0284
-1.749e-04,-0.06,-0.08,0.026,0.0196
-1.730e-04,-0.04,-0.02,0.0292,0.0324
-1.711e-04,-0.06,-0.08,0.0316,0.0244
-1.692e-04,-0.04,-0.02,0.034,0.0372
-1.673e-04,-0.06,-0.08,0.0332,0.03
-1.653e-04,-0.02,-0.02,0.0396,0.0428
-1.634e-04,-0.04,-0.08,0.0404,0.0364
-1.615e-04,-0.04,-0.02,0.046,0.0508
-1.596e-04,-0.06,-0.08,0.05,0.042
-1.576e-04,-0.04,-0.02,0.0556,0.0564
-1.557e-04,-0.02,-0.06,0.0564,0.0492
-1.538e-04,-0.04,-0.02,0.0588,0.066
-1.519e-04,-0.04,-0.06,0.0684,0.058
-1.500e-04,-0.04,-0.02,0.07,0.074
-1.480e-04,-0.04,-0.06,0.0756,0.0652
-1.461e-04,-0.04,-0.02,0.078,0.0828
-1.442e-04,-0.04,-0.06,0.0812,0.074
-1.423e-04,-0.04,-0.02,0.0844,0.0868
-1.404e-04,-0.04,-0.06,0.0836,0.0788
-1.384e-04,-0.02,0,0.0868,0.0892
-1.365e-04,-0.04,-0.08,0.0844,0.078
-1.346e-04,-0.02,-0.02,0.0844,0.0892
-1.327e-04,-0.04,-0.06,0.0804,0.0708
-1.308e-04,-0.04,-0.02,0.074,0.0852
-1.288e-04,-0.02,-0.08,0.0708,0.0636
-1.269e-04,-0.04,0,0.066,0.0796
-1.250e-04,-0.04,-0.06,0.0628,0.0548
-1.231e-04,-0.02,0,0.0596,0.0732
-1.212e-04,-0.04,-0.06,0.054,0.0468
-1.192e-04,-0.04,0,0.0508,0.0628
-1.173e-04,-0.04,-0.06,0.0444,0.0364
-1.154e-04,-0.02,-0.02,0.0428,0.054
-1.135e-04,-0.02,-0.06,0.0404,0.0324
-1.116e-04,-0.02,0,0.0364,0.0468
-1.096e-04,-0.02,-0.06,0.034,0.0268
-1.077e-04,-0.02,0,0.0292,0.0388
-1.058e-04,-0.02,-0.06,0.0284,0.022
-1.039e-04,-0.02,0,0.0284,0.034
-1.020e-04,-0.02,-0.06,0.0252,0.0188
-1.000e-04,-0.02,0.02,0.0236,0.0308
-9.813e-05,-0.02,-0.06,0.0196,0.014
-9.621e-05,-0.02,0,0.0212,0.0276
-9.429e-05,-0.02,-0.06,0.0204,0.0132
-9.237e-05,-0.02,0,0.0156,0.0236
-9.045e-05,-0.02,-0.04,0.0172,0.0108
-8.853e-05,-0.02,0,0.0172,0.022
-8.661e-05,-0.02,-0.06,0.0124,0.0092
-8.469e-05,-0.02,0,0.0116,0.0204
-8.276e-05,-0.02,-0.04,0.0108,0.0076
-8.084e-05,-0.02,0,0.0084,0.018
-7.892e-05,-0.02,-0.06,0.0116,0.0068
-7.700e-05,-0.02,0,0.0092,0.0164
-7.508e-05,-0.02,-0.06,0.0108,0.006
-7.316e-05,0,0,0.0108,0.0156
-7.124e-05,-0.02,-0.04,0.0076,0.0044
-6.932e-05,-0.02,0,0.0116,0.0148
-6.740e-05,-0.02,-0.04,0.01,0.0028
-6.548e-05,-0.02,0,0.01,0.0124
-6.356e-05,-0.02,-0.06,0.0068,0.0028
-6.164e-05,-0.02,0.02,0.0076,0.0148
-5.972e-05,-0.02,-0.04,0.0108,0.0028
-5.780e-05,-0.02,0,0.0084,0.0132
-5.588e-05,-0.02,-0.04,0.0084,0.002
-5.396e-05,-0.02,0,0.0044,0.0116
-5.204e-05,0,-0.04,0.0076,0.0012
-5.012e-05,0,0.02,0.006,0.0124
-4.820e-05,0,-0.04,0.0044,0.002
-4.628e-05,0,0.02,0.0052,0.0124
-4.436e-05,-0.02,-0.04,0.0044,0.0012
-4.244e-05,-0.02,0.02,0.0068,0.0124
-4.052e-05,-0.02,-0.04,0.0076,0.0012
-3.860e-05,0,0.02,0.006,0.0124
-3.668e-05,-0.02,-0.04,0.006,0.0028
-3.476e-05,0,0.02,0.0052,0.0124
-3.284e-05,0,-0.04,0.0068,0.0012
-3.092e-05,0,0.02,0.0076,0.0132
-2.900e-05,0,-0.04,0.0052,0.002
-2.708e-05,0,0.02,0.006,0.0116
-2.516e-05,0,-0.04,0.0076,0.0012
-2.324e-05,0,0.02,0.0068,0.0124
-2.132e-05,0,-0.04,0.0052,0.0012
-1.940e-05,0,0.02,0.0044,0.0116
-1.748e-05,0,-0.04,0.0044,0.000399999
-1.556e-05,0,0.02,0.0044,0.0108
-1.364e-05,0,-0.04,0.0028,-0.000400001
-1.172e-05,0,0.02,0.000399999,0.01
-9.800e-06,0,-0.04,0.006,-0.002
-7.880e-06,0,0.02,0.0028,0.0092
-5.960e-06,0,-0.04,0.0052,-0.0028
-4.040e-06,0,0.02,0.0012,0.0092
-2.120e-06,0,-0.04,0.006,-0.0028
-1.997e-07,0,0.04,-0.000400001,0.0084
1.720e-06,0.02,-0.02,0.0036,-0.0028
3.641e-06,0.02,0.02,0.002,0.0076
5.561e-06,0,-0.02,0.0012,-0.0028
7.481e-06,0,0.04,0.002,0.0076
9.401e-06,0.02,-0.02,0.0012,-0.0036
1.132e-05,0,0.02,0.0044,0.0068
1.324e-05,0,-0.02,-0.000400001,-0.0036
1.516e-05,0,0.02,0.0012,0.0076
1.708e-05,0,-0.02,0.0012,-0.0036
1.900e-05,0.02,0.04,0.0028,0.0068
2.092e-05,0,-0.02,0.0036,-0.0028
2.284e-05,0.02,0.04,0.002,0.0076
2.476e-05,0,-0.02,0.0012,-0.0044
2.668e-05,0,0.02,-0.002,0.006
2.860e-05,0,-0.02,0.000399999,-0.0036
3.052e-05,0,0.04,0.000399999,0.0068
3.244e-05,0.02,-0.02,0.0012,-0.0036
3.436e-05,0.02,0.04,-0.000400001,0.0084
3.628e-05,0,-0.02,0.0012,-0.0044
3.820e-05,0.02,0.04,0.0012,0.006
4.012e-05,0.02,-0.02,-0.002,-0.0036
4.204e-05,0.02,0.04,0.0012,0.0068
4.396e-05,0,-0.02,0.0012,-0.006
4.588e-05,0,0.04,-0.0012,0.006
4.780e-05,0.02,-0.02,-0.000400001,-0.0044
4.972e-05,0.04,0.04,0.002,0.006
5.164e-05,0.02,-0.02,0.000399999,-0.0044
5.356e-05,0.02,0.04,0.0028,0.0052
5.548e-05,0.02,-0.02,-0.000400001,-0.0052
5.740e-05,0.02,0.04,0.002,0.0044
5.932e-05,0.02,-0.02,-0.0012,-0.0052
6.124e-05,0.02,0.04,-0.000400001,0.0068
6.316e-05,0.02,0,0.0012,-0.0052
6.508e-05,0.02,0.04,0.0012,0.006
6.700e-05,0.02,-0.02,0.0036,-0.006
6.892e-05,0,0.04,0.0012,0.0052
7.084e-05,0.02,-0.02,0.0028,-0.006
7.276e-05,0.02,0.04,0.0012,0.006
7.469e-05,0.02,0,0.0012,-0.0044
7.661e-05,0.02,0.06,-0.0012,0.0052
7.853e-05,0.04,0,-0.0012,-0.0052
8.045e-05,0.02,0.06,0.000399999,0.0052
8.237e-05,0.02,0,-0.0012,-0.0052
8.429e-05,0.02,0.04,0.000399999,0.006
8.621e-05,0.04,0,-0.0012,-0.006
8.813e-05,0.02,0.06,0.0028,0.006
9.005e-05,0.02,0,0.0028,-0.0044
9.197e-05,0.02,0.06,-0.000400001,0.006
9.389e-05,0.04,0,-0.0012,-0.0044
9.581e-05,0.02,0.06,-0.0012,0.0044
9.773e-05,0.02,0,0.000399999,-0.006
9.965e-05,0.02,0.06,0.000399999,0.0068
1.016e-04,0.04,0,-0.002,-0.0044
1.035e-04,0.04,0.06,-0.002,0.0044
1.054e-04,0.04,0,0.000399999,-0.0052
1.073e-04,0.02,0.06,0.0012,0.0052
1.092e-04,0.02,0,-0.000400001,-0.0068
1.112e-04,0.04,0.06,0.0012,0.0052
1.131e-04,0.04,0,0.000399999,-0.0052
1.150e-04,0.04,0.06,0.000399999,0.0052
1.169e-04,0.04,0,-0.0028,-0.006
1.188e-04,0.02,0.06,0.0012,0.0052
1.208e-04,0.04,0,-0.0012,-0.0052
1.227e-04,0.04,0.06,0.0012,0.0052
1.246e-04,0.04,0,-0.0028,-0.0052
1.265e-04,0.04,0.06,-0.002,0.0044
1.284e-04,0.04,0,0.0012,-0.006
1.304e-04,0.04,0.06,-0.0028,0.0044
1.323e-04,0.02,0,-0.0012,-0.006
1.342e-04,0.04,0.06,-0.002,0.0052
1.361e-04,0.04,0,-0.0028,-0.006
1.380e-04,0.04,0.06,0.002,0.0044
1.400e-04,0.04,0,-0.000400001,-0.0068
1.419e-04,0.04,0.06,-0.000400001,0.0052
1.438e-04,0.04,0,0.002,-0.006
1.457e-04,0.04,0.06,-0.0012,0.0044
1.476e-04,0.04,0,-0.0012,-0.0052
1.496e-04,0.04,0.06,-0.0012,0.0044
1.515e-04,0.04,0.02,-0.000400001,-0.0068
1.534e-04,0.06,0.06,-0.0012,0.006
1.553e-04,0.04,0.02,-0.0012,-0.0052
1.573e-04,0.04,0.08,-0.002,0.0052
1.592e-04,0.04,0.02,-0.002,-0.0076
1.611e-04,0.06,0.06,-0.0012,0.0044
1.630e-04,0.04,0.02,-0.000400001,-0.0052
1.649e-04,0.06,0.06,0.000399999,0.0052
1.669e-04,0.06,0.02,-0.000400001,-0.006
1.688e-04,0.04,0.06,-0.000400001,0.0044
1.707e-04,0.04,0.02,0.000399999,-0.0052
1.726e-04,0.04,0.06,-0.000400001,0.0052
1.745e-04,0.04,0.02,-0.002,-0.006
1.765e-04,0.06,0.06,0.0012,0.0044
1.784e-04,0.06,0.02,0.0012,-0.006
1.803e-04,0.04,0.08,-0.0012,0.0052
1.822e-04,0.04,0.02,-0.000400001,-0.0052
1.841e-04,0.04,0.08,0.0012,0.006
1.861e-04,0.06,0.02,0.002,-0.0076
1.880e-04,0.06,0.08,-0.000400001,0.0036
1.899e-04,0.04,0.02,0.0012,-0.006
1.918e-04,0.04,0.08,-0.0028,0.0036
1.937e-04,0.06,0.02,-0.0028,-0.006
1.957e-04,0.04,0.08,-0.002,0.0052
1.976e-04,0.06,0.02,-0.000400001,-0.0068
1.995e-04,0.04,0.08,-0.0012,0.0044
2.014e-04,0.06,0.02,-0.0028,-0.006
2.033e-04,0.06,0.08,0.000399999,0.0044
2.053e-04,0.06,0.02,0.002,-0.0068
2.072e-04,0.06,0.08,-0.000400001,0.0052
2.091e-04,0.06,0.02,-0.0012,-0.0068
2.110e-04,0.06,0.08,-0.0012,0.0044
2.129e-04,0.06,0.04,-0.000400001,-0.006
2.149e-04,0.06,0.08,-0.002,0.006
2.168e-04,0.06,0.02,-0.0012,-0.0052
2.187e-04,0.06,0.08,0.000399999,0.0044
2.206e-04,0.06,0.04,-0.002,-0.0052
2.225e-04,0.06,0.08,-0.0044,0.0036
2.245e-04,0.04,0.04,-0.000400001,-0.006
2.264e-04,0.06,0.08,-0.0012,0.0044
2.283e-04,0.06,0.04,-0.002,-0.006
2.302e-04,0.08,0.08,-0.000400001,0.0036
2.321e-04,0.08,0.02,-0.0036,-0.0068
2.341e-04,0.06,0.08,-0.0012,0.0036
2.360e-04,0.06,0.04,-0.0012,-0.006
2.379e-04,0.08,0.08,0.002,0.0052
2.398e-04,0.08,0.04,0.000399999,-0.006
2.417e-04,0.06,0.08,0.0012,0.0036
2.437e-04,0.06,0.04,0.0012,-0.0052
2.456e-04,0.06,0.08,-0.002,0.0044
2.475e-04,0.06,0.02,-0.0036,-0.0068
2.494e-04,0.06,0.1,-0.002,0.0044
2.513e-04,0.08,0.04,-0.002,-0.006
2.533e-04,0.06,0.08,-0.002,0.0044
2.552e-04,0.06,0.04,-0.0012,-0.006
2.571e-04,0.08,0.1,-0.0028,0.0036
2.590e-04,0.08,0.04,0.000399999,-0.006
2.609e-04,0.08,0.1,-0.0036,0.0052
2.629e-04,0.06,0.04,0.000399999,-0.006
2.648e-04,0.08,0.08,-0.000400001,0.0044
2.667e-04,0.06,0.04,-0.0028,-0.006
2.686e-04,0.06,0.1,0.0012,0.0044
2.705e-04,0.06,0.04,-0.002,-0.0052
2.725e-04,0.06,0.1,-0.0012,0.0036
2.744e-04,0.06,0.04,-0.0012,-0.006
2.763e-04,0.08,0.1,0.0028,0.0052
2.782e-04,0.08,0.04,0.0012,-0.006
2.801e-04,0.08,0.1,-0.002,0.0036
2.821e-04,0.08,0.04,-0.0028,-0.0052
2.840e-04,0.06,0.1,-0.000400001,0.0052
2.859e-04,0.08,0.04,-0.002,-0.006
2.878e-04,0.08,0.1,-0.002,0.0044
2.897e-04,0.08,0.04,-0.0028,-0.006
2.917e-04,0.08,0.1,-0.0028,0.0044
2.936e-04,0.08,0.06,0.000399999,-0.006
2.955e-04,0.08,0.1,-0.000400001,0.0036
2.974e-04,0.08,0.06,-0.000400001,-0.006
2.993e-04,0.08,0.1,-0.000400001,0.0052
3.013e-04,0.08,0.04,-0.0036,-0.0052
3.032e-04,0.08,0.1,-0.002,0.0044
3.051e-04,0.08,0.06,-0.000400001,-0.0052
3.070e-04,0.08,0.1,-0.0012,0.0036
3.089e-04,0.06,0.06,-0.002,-0.006
3.109e-04,0.08,0.1,-0.0012,0.0044
3.128e-04,0.08,0.06,-0.000400001,-0.006
3.147e-04,0.08,0.1,-0.0028,0.0044
3.166e-04,0.06,0.06,-0.000400001,-0.006
3.185e-04,0.08,0.1,-0.0028,0.0036
3.205e-04,0.08,0.06,-0.0012,-0.0068
3.224e-04,0.08,0.12,-0.0012,0.0044
3.243e-04,0.08,0.06,-0.0012,-0.0052
3.262e-04,0.08,0.12,-0.000400001,0.0052
3.281e-04,0.08,0.06,-0.000400001,-0.0052
3.301e-04,0.08,0.1,-0.0012,0.0036
3.320e-04,0.08,0.06,-0.000400001,-0.006
3.339e-04,0.08,0.12,-0.002,0.0052
3.358e-04,0.08,0.06,0.002,-0.0068
3.377e-04,0.1,0.12,-0.0036,0.0052
3.397e-04,0.1,0.06,-0.0012,-0.0068
3.416e-04,0.08,0.12,0.000399999,0.0044
3.435e-04,0.1,0.06,-0.002,-0.006
3.454e-04,0.08,0.12,-0.0012,0.0044
3.473e-04,0.1,0.06,0.002,-0.006
3.493e-04,0.08,0.12,-0.0012,0.0044
3.512e-04,0.08,0.06,-0.000400001,-0.0068
3.531e-04,0.1,0.12,-0.000400001,0.0044
3.550e-04,0.1,0.06,-0.002,-0.006
3.569e-04,0.1,0.12,-0.000400001,0.0044
3.589e-04,0.1,0.06,-0.0012,-0.006
3.608e-04,0.08,0.12,-0.0012,0.0044
3.627e-04,0.08,0.06,-0.002,-0.006
3.646e-04,0.08,0.12,-0.0028,0.0044
3.665e-04,0.1,0.08,-0.000400001,-0.006
3.685e-04,0.1,0.14,-0.002,0.0044
3.704e-04,0.1,0.06,-0.0036,-0.0092
3.723e-04,0.1,0.12,-0.0012,0.0044
3.742e-04,0.1,0.06,-0.002,-0.006
3.761e-04,0.1,0.12,0.0012,0.0028
3.781e-04,0.1,0.08,-0.002,-0.0052
3.800e-04,0.1,0.12,-0.0012,0.0052
3.819e-04,0.1,0.08,0.000399999,-0.006
3.838e-04,0.1,0.12,-0.002,0.0044
3.857e-04,0.1,0.08,-0.002,-0.0052
3.877e-04,0.1,0.14,-0.0012,0.0036
3.896e-04,0.1,0.08,-0.0012,-0.0052
3.915e-04,0.1,0.12,-0.0012,0.0044
3.934e-04,0.12,0.08,-0.002,-0.006
3.953e-04,0.1,0.12,-0.0028,0.0044
3.973e-04,0.1,0.08,-0.0012,-0.006
3.992e-04,0.1,0.12,-0.0044,0.0036
4.011e-04,0.1,0.08,-0.0012,-0.0076
4.030e-04,0.1,0.14,-0.000400001,0.0036
4.049e-04,0.12,0.08,-0.002,-0.0076
4.069e-04,0.12,0.12,-0.0012,0.0052
4.088e-04,0.1,0.08,-0.0012,-0.006
4.107e-04,0.12,0.14,-0.002,0.0044
4.126e-04,0.1,0.08,-0.0036,-0.006
4.145e-04,0.1,0.12,-0.002,0.0044
4.165e-04,0.12,0.08,-0.000400001,-0.006
4.184e-04,0.1,0.14,0.0012,0.0044
4.203e-04,0.1,0.08,-0.0028,-0.0068
4.222e-04,0.12,0.14,-0.0012,0.0044
4.241e-04,0.1,0.08,0.000399999,-0.0068
4.261e-04,0.12,0.14,-0.0028,0.0036
4.280e-04,0.12,0.08,-0.002,-0.0068
4.299e-04,0.1,0.14,0.002,0.0052
4.318e-04,0.1,0.08,0.0012,-0.0068
4.337e-04,0.1,0.14,-0.0012,0.0052
4.357e-04,0.12,0.08,0.000399999,-0.006
4.376e-04,0.1,0.14,-0.002,0.0036
4.395e-04,0.12,0.08,-0.0044,-0.006
4.414e-04,0.1,0.14,-0.0012,0.006
4.433e-04,0.12,0.08,-0.0052,-0.006
4.453e-04,0.12,0.14,-0.000400001,0.0036
4.472e-04,0.12,0.08,0.000399999,-0.0068
4.491e-04,0.12,0.14,-0.000400001,0.0044
4.510e-04,0.12,0.08,0.002,-0.006
4.529e-04,0.12,0.14,-0.0012,0.0044
4.549e-04,0.1,0.08,0.000399999,-0.006
4.568e-04,0.12,0.14,-0.002,0.006
4.587e-04,0.12,0.1,-0.002,-0.0076
4.606e-04,0.12,0.14,-0.0044,0.0044
4.625e-04,0.12,0.08,-0.0012,-0.0076
4.645e-04,0.12,0.14,-0.0028,0.0036
4.664e-04,0.12,0.1,-0.000400001,-0.0068
4.683e-04,0.12,0.14,0.002,0.0044
4.702e-04,0.12,0.1,-0.000400001,-0.0052
4.722e-04,0.12,0.14,0.0012,0.0044
4.741e-04,0.12,0.1,-0.0036,-0.0068
4.760e-04,0.12,0.14,-0.000400001,0.0044
4.779e-04,0.14,0.1,-0.000400001,-0.0068
4.798e-04,0.12,0.14,-0.0028,0.0036
4.818e-04,0.12,0.1,-0.0012,-0.0068
4.837e-04,0.12,0.14,-0.0036,0.0052
4.856e-04,0.12,0.1,0.000399999,-0.0068
4.875e-04,0.12,0.14,-0.002,0.0044
4.894e-04,0.12,0.1,-0.0012,-0.006
4.914e-04,0.12,0.16,-0.000400001,0.0044
4.933e-04,0.14,0.1,0.0012,-0.006
4.952e-04,0.14,0.16,0.0012,0.0044
4.971e-04,0.12,0.1,0.000399999,-0.0068
4.990e-04,0.12,0.16,0.000399999,0.0044
5.010e-04,0.12,0.1,-0.000400001,-0.0068
5.029e-04,0.14,0.16,-0.002,0.0044
5.048e-04,0.12,0.1,-0.000400001,-0.006
5.067e-04,0.12,0.16,-0.000400001,0.0044
5.086e-04,0.14,0.1,0.000399999,-0.0076
5.106e-04,0.14,0.16,-0.0012,0.006
5.125e-04,0.12,0.1,-0.002,-0.0068
5.144e-04,0.14,0.16,0.0012,0.0044
5.163e-04,0.14,0.1,-0.002,-0.0052
5.182e-04,0.12,0.16,-0.000400001,0.006
5.202e-04,0.14,0.1,-0.002,-0.0076
5.221e-04,0.14,0.16,-0.000400001,0.0036
5.240e-04,0.14,0.1,-0.0012,-0.006
5.259e-04,0.16,0.16,-0.002,0.0044
5.278e-04,0.14,0.1,0.002,-0.0068
5.298e-04,0.14,0.16,-0.006,0.0052
5.317e-04,0.14,0.1,0.000399999,-0.0068
5.336e-04,0.14,0.16,0.002,0.0036
5.355e-04,0.14,0.12,-0.002,-0.0052
5.374e-04,0.14,0.16,-0.002,0.0044
5.394e-04,0.14,0.1,-0.002,-0.006
5.413e-04,0.14,0.16,-0.002,0.0044
5.432e-04,0.14,0.1,-0.002,-0.006
5.451e-04,0.14,0.16,-0.000400001,0.0036
5.470e-04,0.14,0.12,0.0012,-0.0068
5.490e-04,0.14,0.16,-0.0028,0.0036
5.509e-04,0.14,0.12,-0.000400001,-0.006
5.528e-04,0.16,0.16,0.000399999,0.0052
5.547e-04,0.14,0.12,-0.0044,-0.0052
5.566e-04,0.14,0.16,0.000399999,0.0044
5.586e-04,0.14,0.12,-0.0028,-0.0068
5.605e-04,0.14,0.16,-0.0028,0.0036
5.624e-04,0.16,0.12,0.0012,-0.006
5.643e-04,0.14,0.16,-0.000400001,0.0044
5.662e-04,0.14,0.12,-0.002,-0.006
5.682e-04,0.14,0.16,-0.002,0.0044
5.701e-04,0.14,0.12,0.0012,-0.006
5.720e-04,0.14,0.16,0.000399999,0.0036
5.739e-04,0.14,0.12,0.002,-0.006
5.758e-04,0.14,0.18,-0.002,0.0036
5.778e-04,0.14,0.12,0.000399999,-0.0084
5.797e-04,0.16,0.18,-0.0028,0.0036
5.816e-04,0.14,0.12,-0.002,-0.0076
5.835e-04,0.14,0.18,-0.000400001,0.0044
5.854e-04,0.14,0.12,-0.000400001,-0.0052
5.874e-04,0.16,0.18,0.000399999,0.0044
5.893e-04,0.16,0.12,0.002,-0.006
5.912e-04,0.16,0.18,-0.002,0.0044
5.931e-04,0.16,0.12,-0.002,-0.006
5.950e-04,0.16,0.18,-0.0012,0.0044
5.970e-04,0.16,0.12,-0.0028,-0.006
5.989e-04,0.14,0.18,0.000399999,0.0044
6.008e-04,0.14,0.12,-0.0012,-0.0068
6.027e-04,0.14,0.18,-0.002,0.0052
6.046e-04,0.16,0.12,-0.000400001,-0.0052
6.066e-04,0.16,0.18,-0.000400001,0.0052
6.085e-04,0.16,0.12,-0.0036,-0.0068
6.104e-04,0.16,0.18,0.000399999,0.0044
6.123e-04,0.16,0.12,-0.0012,-0.0076
6.142e-04,0.14,0.18,-0.0012,0.0036
6.162e-04,0.16,0.12,-0.0012,-0.006
6.181e-04,0.16,0.18,0.0012,0.0052
6.200e-04,0.16,0.12,-0.0012,-0.0068
6.219e-04,0.16,0.18,0.0012,0.0044
6.238e-04,0.16,0.12,-0.002,-0.0068
6.258e-04,0.14,0.18,-0.0012,0.0036
6.277e-04,0.16,0.14,-0.0012,-0.006
6.296e-04,0.16,0.18,-0.0028,0.0044
6.315e-04,0.16,0.14,0.000399999,-0.006
6.334e-04,0.16,0.2,-0.0012,0.0044
6.354e-04,0.16,0.14,-0.0028,-0.0068
6.373e-04,0.16,0.2,-0.0044,0.0044
6.392e-04,0.16,0.14,-0.000400001,-0.0068
6.411e-04,0.16,0.18,-0.0028,0.0036
6.430e-04,0.16,0.14,-0.0028,-0.006
6.450e-04,0.14,0.18,-0.000400001,0.0052
6.469e-04,0.18,0.14,-0.0012,-0.0068
6.488e-04,0.16,0.2,0.0012,0.0036
6.507e-04,0.16,0.14,-0.0028,-0.006
6.526e-04,0.18,0.18,-0.0052,0.0028
6.546e-04,0.18,0.14,-0.0036,-0.0068
6.565e-04,0.16,0.22,-0.0012,0.0036
6.584e-04,0.16,0.14,0.000399999,-0.0068
6.603e-04,0.16,0.2,0.000399999,0.0036
6.622e-04,0.16,0.14,-0.002,-0.0068
6.642e-04,0.18,0.2,0.000399999,0.0044
6.661e-04,0.16,0.14,-0.0012,-0.0068
6.680e-04,0.16,0.2,-0.000400001,0.0044
6.699e-04,0.16,0.14,0.002,-0.006
6.718e-04,0.16,0.2,-0.002,0.0036
6.738e-04,0.18,0.14,-0.0012,-0.0052
6.757e-04,0.18,0.2,-0.0012,0.0052
6.776e-04,0.18,0.14,-0.000400001,-0.006
6.795e-04,0.18,0.2,-0.002,0.0044
6.814e-04,0.18,0.14,-0.0028,-0.006
6.834e-04,0.16,0.2,0.0012,0.0044
6.853e-04,0.18,0.16,-0.0012,-0.006
6.872e-04,0.18,0.2,-0.0012,0.0036
6.891e-04,0.18,0.14,0.0012,-0.006
6.910e-04,0.18,0.2,0.0012,0.0036
6.930e-04,0.16,0.16,-0.0044,-0.006
6.949e-04,0.16,0.2,0.0012,0.0044
6.968e-04,0.2,0.14,-0.0012,-0.006
6.987e-04,0.18,0.2,0.0012,0.0044
7.006e-04,0.18,0.16,-0.0012,-0.006
7.026e-04,0.18,0.2,-0.0012,0.0044
7.045e-04,0.18,0.16,-0.002,-0.006
7.064e-04,0.18,0.2,-0.0012,0.006
7.083e-04,0.18,0.16,-0.000400001,-0.006
7.102e-04,0.18,0.2,-0.0012,0.0028
7.122e-04,0.18,0.16,-0.0028,-0.0068
7.141e-04,0.2,0.2,-0.000400001,0.0044
7.160e-04,0.2,0.16,-0.002,-0.006
7.179e-04,0.18,0.22,-0.002,0.0044
7.198e-04,0.18,0.16,-0.0012,-0.006
7.218e-04,0.2,0.22,-0.0012,0.0044
7.237e-04,0.2,0.16,-0.0012,-0.0068
7.256e-04,0.18,0.2,-0.000400001,0.0044
7.275e-04,0.18,0.16,-0.002,-0.0068
7.294e-04,0.2,0.22,0.000399999,0.0044
7.314e-04,0.2,0.16,-0.000400001,-0.0076
7.333e-04,0.18,0.22,-0.0028,0.0044
7.352e-04,0.18,0.16,0.0012,-0.006
7.371e-04,0.22,0.22,-0.000400001,0.0044
7.390e-04,0.2,0.16,-0.0036,-0.006
7.410e-04,0.2,0.22,-0.000400001,0.0044
7.429e-04,0.18,0.16,0.0012,-0.0068
7.448e-04,0.2,0.22,-0.000400001,0.0028
7.467e-04,0.18,0.16,-0.0044,-0.006
7.486e-04,0.22,0.22,0.000399999,0.0052
7.506e-04,0.18,0.16,-0.0012,-0.0068
7.525e-04,0.18,0.22,-0.0012,0.0044
7.544e-04,0.2,0.16,-0.000400001,-0.0076
7.563e-04,0.2,0.22,-0.000400001,0.006
7.582e-04,0.18,0.16,-0.0012,-0.0076
7.602e-04,0.2,0.22,-0.000400001,0.0044
7.621e-04,0.2,0.18,-0.000400001,-0.0068
7.640e-04,0.2,0.22,0.0012,0.0036
7.659e-04,0.2,0.16,0.0012,-0.0076
7.678e-04,0.2,0.22,-0.0028,0.0052
7.698e-04,0.2,0.18,-0.0012,-0.0068
7.717e-04,0.18,0.22,-0.0028,0.0044
7.736e-04,0.2,0.16,-0.002,-0.006
7.755e-04,0.2,0.22,-0.000400001,0.0036
7.775e-04,0.2,0.16,-0.000400001,-0.006
7.794e-04,0.2,0.22,-0.0012,0.0044
7.813e-04,0.2,0.18,-0.0012,-0.006
7.832e-04,0.2,0.22,0.000399999,0.0052
7.851e-04,0.2,0.18,-0.0028,-0.0068
7.871e-04,0.2,0.22,-0.002,0.006
7.890e-04,0.2,0.18,-0.000400001,-0.006
7.909e-04,0.2,0.24,0.002,0.0044
7.928e-04,0.2,0.18,0.000399999,-0.006
7.947e-04,0.2,0.22,-0.000400001,0.0044
7.967e-04,0.2,0.18,-0.000400001,-0.006
7.986e-04,0.2,0.22,-0.000400001,0.0044
8.005e-04,0.2,0.18,0.0012,-0.0052
8.024e-04,0.2,0.22,-0.002,0.0052
8.043e-04,0.2,0.18,-0.002,-0.006
8.063e-04,0.2,0.22,0.000399999,0.0044
8.082e-04,0.2,0.18,-0.0044,-0.0068
8.101e-04,0.2,0.24,-0.0028,0.0036
8.120e-04,0.22,0.18,0.0012,-0.006
8.139e-04,0.22,0.24,-0.000400001,0.0052
8.159e-04,0.22,0.18,-0.000400001,-0.006
8.178e-04,0.22,0.24,0.0012,0.0052
8.197e-04,0.22,0.18,0.000399999,-0.0052
8.216e-04,0.2,0.24,-0.002,0.0052
8.235e-04,0.22,0.18,0.0012,-0.0052
8.255e-04,0.22,0.24,-0.000400001,0.0052
8.274e-04,0.22,0.18,-0.0012,-0.006
8.293e-04,0.2,0.24,-0.0012,0.0044
8.312e-04,0.2,0.18,0.002,-0.006
8.331e-04,0.22,0.24,0.002,0.0044
8.351e-04,0.22,0.18,-0.0012,-0.0052
8.370e-04,0.2,0.24,0.0012,0.0052
8.389e-04,0.22,0.18,-0.0036,-0.0068
8.408e-04,0.22,0.24,-0.0036,0.0068
8.427e-04,0.22,0.2,-0.0012,-0.0052
8.447e-04,0.22,0.24,-0.0036,0.0044
8.466e-04,0.22,0.18,0.002,-0.0052
8.485e-04,0.22,0.24,-0.0012,0.006
8.504e-04,0.22,0.18,0.0012,-0.0052
8.523e-04,0.22,0.24,0.0012,0.0052
8.543e-04,0.22,0.18,0.0028,-0.0068
8.562e-04,0.22,0.24,0.0028,0.0052
8.581e-04,0.2,0.18,-0.0012,-0.006
8.600e-04,0.2,0.24,0.002,0.006
8.619e-04,0.2,0.2,-0.0028,-0.0068
8.639e-04,0.24,0.24,0.002,0.0044
8.658e-04,0.24,0.2,-0.000400001,-0.0052
8.677e-04,0.22,0.24,0.000399999,0.0044
8.696e-04,0.22,0.2,0.002,-0.006
8.715e-04,0.22,0.24,-0.0044,0.0044
8.735e-04,0.22,0.18,-0.000400001,-0.006
8.754e-04,0.22,0.24,-0.000400001,0.006
8.773e-04,0.22,0.2,0.0028,-0.0044
8.792e-04,0.24,0.24,0.000399999,0.0052
8.811e-04,0.24,0.2,0.0012,-0.0052
8.831e-04,0.22,0.26,0.000399999,0.006
8.850e-04,0.24,0.2,0.000399999,-0.0044
8.869e-04,0.24,0.26,0.002,0.006
8.888e-04,0.24,0.2,0.002,-0.0044
8.907e-04,0.24,0.26,-0.000400001,0.0044
8.927e-04,0.22,0.2,0.000399999,-0.0052
8.946e-04,0.24,0.26,0.000399999,0.006
8.965e-04,0.22,0.2,0.0012,-0.0036
8.984e-04,0.24,0.26,0.0012,0.0068
9.003e-04,0.22,0.2,0.0044,-0.0036
9.023e-04,0.24,0.26,0.0028,0.006
9.042e-04,0.24,0.2,0.0012,-0.0036
9.061e-04,0.22,0.26,0.002,0.0068
9.080e-04,0.24,0.2,0.0052,-0.0036
9.099e-04,0.24,0.26,0.0012,0.0068
9.119e-04,0.24,0.2,0.002,-0.0036
9.138e-04,0.24,0.26,0.0036,0.0068
9.157e-04,0.24,0.2,0.0028,-0.0012
9.176e-04,0.22,0.26,0.0044,0.0076
9.195e-04,0.22,0.2,0.006,-0.0028
9.215e-04,0.22,0.26,0.0044,0.0092
9.234e-04,0.24,0.2,0.002,-0.0012
9.253e-04,0.22,0.26,0.0028,0.0108
9.272e-04,0.24,0.22,0.0052,-0.000400001
9.291e-04,0.24,0.26,0.006,0.0108
9.311e-04,0.24,0.22,0.006,0.002
9.330e-04,0.24,0.26,0.006,0.0116
9.349e-04,0.24,0.2,0.006,0.0012
9.368e-04,0.24,0.26,0.0076,0.0132
9.387e-04,0.24,0.22,0.0092,0.0044
9.407e-04,0.24,0.26,0.0124,0.0156
9.426e-04,0.24,0.22,0.0132,0.006
9.445e-04,0.24,0.26,0.0132,0.0172
9.464e-04,0.24,0.22,0.014,0.0084
9.483e-04,0.24,0.26,0.014,0.0212
9.503e-04,0.24,0.22,0.0156,0.0124
9.522e-04,0.24,0.26,0.0212,0.0236
9.541e-04,0.24,0.2,0.0212,0.0164
9.560e-04,0.24,0.26,0.0244,0.0276
9.579e-04,0.24,0.22,0.0252,0.0196
9.599e-04,0.24,0.26,0.026,0.03
9.618e-04,0.24,0.22,0.0276,0.0212
9.637e-04,0.26,0.28,0.0284,0.0332
9.656e-04,0.26,0.22,0.0284,0.022
9.675e-04,0.26,0.28,0.0276,0.0324
9.695e-04,0.26,0.22,0.0292,0.0204
9.714e-04,0.24,0.26,0.0252,0.0316
9.733e-04,0.24,0.22,0.0228,0.0164
9.752e-04,0.26,0.26,0.018,0.0292
9.771e-04,0.26,0.22,0.0188,0.0108
9.791e-04,0.26,0.28,0.018,0.0252
9.810e-04,0.26,0.22,0.0172,0.0092
9.829e-04,0.26,0.28,0.0148,0.0228
9.848e-04,0.26,0.22,0.0132,0.0068
9.867e-04,0.24,0.28,0.01,0.0188
9.887e-04,0.26,0.22,0.0084,0.0036
9.906e-04,0.26,0.28,0.0068,0.0164
9.925e-04,0.26,0.22,0.0068,0.0036
9.944e-04,0.26,0.28,0.01,0.014
9.963e-04,0.26,0.22,0.0068,0.0012
9.983e-04,0.26,0.28,0.0068,0.0116
1.000e-03,0.26,0.22,0.006,-0.000400001
1.002e-03,0.26,0.28,0.0052,0.01
1.004e-03,0.26,0.22,0.0036,-0.002
1.006e-03,0.26,0.28,0.0028,0.0092
1.008e-03,0.24,0.22,0.0012,-0.0028
1.010e-03,0.26,0.28,0.002,0.0084
1.012e-03,0.26,0.22,0.0036,-0.0028
1.014e-03,0.26,0.28,0.0036,0.0068
1.016e-03,0.26,0.22,0.0012,-0.0036
1.017e-03,0.26,0.28,0.0028,0.0068
1.019e-03,0.26,0.24,-0.0012,-0.0036
1.021e-03,0.26,0.3,0.000399999,0.0076
1.023e-03,0.26,0.24,0.0028,-0.0044
1.025e-03,0.26,0.28,0.0028,0.0076
1.027e-03,0.28,0.24,-0.000400001,-0.0044
1.029e-03,0.26,0.3,-0.0028,0.006
1.031e-03,0.28,0.24,0.002,-0.0044
1.033e-03,0.26,0.3,0.0012,0.006
1.035e-03,0.28,0.24,0.0028,-0.0044
1.037e-03,0.26,0.28,0.000399999,0.006
1.039e-03,0.26,0.24,0.0044,-0.0052
1.041e-03,0.26,0.28,0.000399999,0.006
1.042e-03,0.26,0.24,-0.000400001,-0.0044
1.044e-03,0.26,0.3,0.0028,0.006
1.046e-03,0.28,0.24,0.0012,-0.0036
1.048e-03,0.28,0.3,-0.000400001,0.0068
1.050e-03,0.28,0.24,-0.000400001,-0.0044
1.052e-03,0.26,0.3,0.002,0.006
1.054e-03,0.26,0.24,-0.0028,-0.0044
1.056e-03,0.26,0.3,0.002,0.006
1.058e-03,0.28,0.24,-0.000400001,-0.0044
1.060e-03,0.28,0.3,0.002,0.0052
1.062e-03,0.28,0.24,0.0044,-0.0052
1.064e-03,0.28,0.3,-0.000400001,0.0044
1.065e-03,0.28,0.24,-0.0012,-0.006
1.067e-03,0.28,0.3,-0.000400001,0.006
1.069e-03,0.28,0.24,-0.000400001,-0.0044
1.071e-03,0.26,0.3,-0.000400001,0.0068
1.073e-03,0.28,0.24,0.0012,-0.006
1.075e-03,0.26,0.3,-0.0012,0.0052
1.077e-03,0.28,0.24,0.0012,-0.0052
1.079e-03,0.28,0.3,-0.0012,0.0052
1.081e-03,0.28,0.26,0.0012,-0.0052
1.083e-03,0.28,0.3,0.0012,0.0052
1.085e-03,0.28,0.24,-0.000400001,-0.0052
1.087e-03,0.28,0.3,0.0028,0.006
1.089e-03,0.26,0.26,0.002,-0.0052
1.090e-03,0.26,0.3,-0.000400001,0.0052
1.092e-03,0.28,0.24,-0.000400001,-0.006
1.094e-03,0.26,0.3,-0.0012,0.0052
1.096e-03,0.3,0.26,0.0028,-0.0052
1.098e-03,0.28,0.3,-0.0028,0.006
1.100e-03,0.28,0.26,0.000399999,-0.0044
1.102e-03,0.28,0.3,-0.0012,0.0044
1.104e-03,0.28,0.26,-0.000400001,-0.0052
1.106e-03,0.3,0.3,-0.0012,0.0068
1.108e-03,0.28,0.26,0.000399999,-0.006
1.110e-03,0.28,0.3,-0.0012,0.0044
1.112e-03,0.28,0.26,0.002,-0.006
1.113e-03,0.28,0.3,-0.000400001,0.0044
1.115e-03,0.3,0.26,-0.002,-0.0052
1.117e-03,0.3,0.3,0.002,0.0052
1.119e-03,0.28,0.26,0.002,-0.006
1.121e-03,0.28,0.32,-0.0028,0.0044
1.123e-03,0.28,0.26,-0.0028,-0.006
1.125e-03,0.28,0.3,0.000399999,0.0052
1.127e-03,0.28,0.26,-0.0028,-0.0068
1.129e-03,0.28,0.32,0.0012,0.0044
1.131e-03,0.28,0.26,-0.0028,-0.006
1.133e-03,0.3,0.3,-0.002,0.0044
1.135e-03,0.3,0.26,-0.0012,-0.0052
1.137e-03,0.3,0.32,-0.000400001,0.0044
1.138e-03,0.3,0.26,-0.0012,-0.0052
1.140e-03,0.28,0.32,-0.0028,0.0044
1.142e-03,0.3,0.28,0.0028,-0.0084
1.144e-03,0.28,0.32,-0.0012,0.0044
1.146e-03,0.3,0.28,0.000399999,-0.006
1.148e-03,0.28,0.32,0.0012,0.006
1.150e-03,0.3,0.26,-0.002,-0.0052
1.152e-03,0.3,0.32,0.0012,0.0044
1.154e-03,0.3,0.26,-0.000400001,-0.0068
1.156e-03,0.3,0.32,-0.0012,0.0044
1.158e-03,0.28,0.26,-0.0012,-0.0052
1.160e-03,0.3,0.32,-0.0012,0.0052
1.161e-03,0.3,0.26,-0.0028,-0.0068
1.163e-03,0.3,0.32,-0.002,0.0044
1.165e-03,0.3,0.26,-0.000400001,-0.006
1.167e-03,0.3,0.32,-0.002,0.0044
1.169e-03,0.3,0.26,-0.0028,-0.006
1.171e-03,0.28,0.32,0.000399999,0.0036
1.173e-03,0.3,0.28,-0.0028,-0.0052
1.175e-03,0.3,0.32,-0.0012,0.0036
1.177e-03,0.3,0.28,-0.000400001,-0.006
1.179e-03,0.3,0.32,-0.000400001,0.0036
1.181e-03,0.3,0.28,-0.0012,-0.006
1.183e-03,0.3,0.32,-0.002,0.0044
1.185e-03,0.32,0.28,0.000399999,-0.006
1.186e-03,0.3,0.32,-0.0044,0.0044
1.188e-03,0.3,0.28,-0.000400001,-0.006
1.190e-03,0.3,0.32,-0.000400001,0.0036
1.192e-03,0.32,0.28,-0.002,-0.006
1.194e-03,0.3,0.32,-0.0012,0.0036
1.196e-03,0.32,0.28,-0.002,-0.006
1.198e-03,0.3,0.34,-0.000400001,0.0036
1.200e-03,0.3,0.28,-0.0012,-0.006
1.202e-03,0.3,0.32,-0.002,0.0044
1.204e-03,0.3,0.28,-0.002,-0.0076
1.206e-03,0.32,0.34,-0.000400001,0.0028
1.208e-03,0.32,0.28,-0.0036,-0.006
1.209e-03,0.3,0.34,-0.0012,0.0044
1.211e-03,0.32,0.28,-0.0012,-0.0068
1.213e-03,0.32,0.34,0.000399999,0.0036
1.215e-03,0.32,0.28,-0.002,-0.0068
1.217e-03,0.3,0.34,-0.0036,0.0044
1.219e-03,0.3,0.28,-0.0012,-0.0068
1.221e-03,0.32,0.34,-0.000400001,0.0036
1.223e-03,0.3,0.28,0.0012,-0.0068
1.225e-03,0.3,0.34,0.000399999,0.0052
1.227e-03,0.3,0.28,-0.000400001,-0.0068
1.229e-03,0.3,0.34,-0.002,0.0044
1.231e-03,0.32,0.28,-0.002,-0.0068
1.233e-03,0.32,0.34,-0.000400001,0.0044
1.234e-03,0.32,0.3,-0.002,-0.0052
1.236e-03,0.32,0.34,0.0012,0.0044
1.238e-03,0.32,0.28,-0.0012,-0.006
1.240e-03,0.32,0.34,0.002,0.0036
1.242e-03,0.32,0.3,-0.006,-0.0076
1.244e-03,0.32,0.34,-0.0028,0.0036
1.246e-03,0.32,0.3,-0.000400001,-0.006
1.248e-03,0.3,0.34,-0.0028,0.0052
1.250e-03,0.34,0.3,0.000399999,-0.0068
1.252e-03,0.32,0.34,-0.0044,0.0044
1.254e-03,0.3,0.3,0.002,-0.006
1.256e-03,0.32,0.34,-0.0012,0.0052
1.257e-03,0.34,0.3,-0.000400001,-0.0068
1.259e-03,0.34,0.34,-0.002,0.0052
1.261e-03,0.3,0.3,0.000399999,-0.0068
1.263e-03,0.32,0.34,-0.000400001,0.0044
1.265e-03,0.32,0.3,-0.000400001,-0.0052
1.267e-03,0.32,0.34,-0.0012,0.0044
1.269e-03,0.34,0.3,-0.002,-0.006
1.271e-03,0.34,0.36,-0.0028,0.0044
1.273e-03,0.32,0.28,-0.002,-0.006
1.275e-03,0.32,0.34,-0.0036,0.0044
1.277e-03,0.32,0.3,-0.002,-0.0068
1.279e-03,0.32,0.34,0.0012,0.0044
1.281e-03,0.32,0.3,-0.002,-0.006
1.282e-03,0.32,0.34,-0.0028,0.0044
1.284e-03,0.34,0.3,-0.0028,-0.006
1.286e-03,0.32,0.36,0.000399999,0.0044
1.288e-03,0.34,0.3,-0.0012,-0.006
1.290e-03,0.32,0.36,-0.0044,0.0044
1.292e-03,0.32,0.3,-0.0012,-0.0052
1.294e-03,0.34,0.36,0.0012,0.0044
1.296e-03,0.34,0.3,-0.0044,-0.006
1.298e-03,0.32,0.36,-0.0028,0.0036
1.300e-03,0.34,0.3,-0.000400001,-0.006
1.302e-03,0.34,0.36,-0.000400001,0.0052
1.304e-03,0.32,0.3,-0.000400001,-0.006
1.305e-03,0.34,0.36,-0.002,0.0044
1.307e-03,0.32,0.3,-0.0036,-0.0068
1.309e-03,0.34,0.36,-0.000400001,0.0044
1.311e-03,0.32,0.3,-0.000400001,-0.0052
1.313e-03,0.32,0.36,-0.000400001,0.0036
1.315e-03,0.34,0.32,-0.0036,-0.006
1.317e-03,0.36,0.36,-0.0012,0.0044
1.319e-03,0.34,0.3,-0.0012,-0.006
1.321e-03,0.32,0.36,-0.002,0.0052
1.323e-03,0.34,0.3,-0.0012,-0.006
1.325e-03,0.32,0.36,-0.0012,0.0044
1.327e-03,0.34,0.3,-0.000400001,-0.006
1.329e-03,0.34,0.36,-0.0028,0.006
1.330e-03,0.34,0.3,0.000399999,-0.006
1.332e-03,0.34,0.36,-0.0012,0.0036
1.334e-03,0.34,0.32,-0.000400001,-0.0068
1.336e-03,0.34,0.36,-0.002,0.0052
1.338e-03,0.34,0.32,-0.0028,-0.006
1.340e-03,0.34,0.36,-0.0012,0.0044
1.342e-03,0.34,0.3,0.000399999,-0.006
1.344e-03,0.34,0.36,0.002,0.0036
1.346e-03,0.36,0.32,-0.0028,-0.0068
1.348e-03,0.34,0.36,-0.0028,0.0036
1.350e-03,0.34,0.32,0.0028,-0.0052
1.352e-03,0.34,0.36,-0.000400001,0.0044
1.353e-03,0.34,0.32,-0.002,-0.0052
1.355e-03,0.34,0.38,-0.002,0.0044
1.357e-03,0.34,0.32,-0.002,-0.006
1.359e-03,0.34,0.38,-0.0012,0.0044
1.361e-03,0.34,0.32,-0.0044,-0.0068
1.363e-03,0.32,0.36,-0.002,0.0044
1.365e-03,0.34,0.32,-0.0028,-0.0068
1.367e-03,0.36,0.38,-0.000400001,0.0044
1.369e-03,0.34,0.32,-0.0012,-0.006
1.371e-03,0.36,0.38,-0.0028,0.0052
1.373e-03,0.34,0.32,-0.0028,-0.006
1.375e-03,0.36,0.38,-0.0044,0.0044
1.377e-03,0.34,0.32,-0.002,-0.006
1.378e-03,0.34,0.38,-0.002,0.0052
1.380e-03,0.36,0.32,-0.0028,-0.0076
1.382e-03,0.36,0.38,-0.0012,0.0036
1.384e-03,0.34,0.32,-0.000400001,-0.0068
1.386e-03,0.36,0.38,-0.002,0.0036
1.388e-03,0.36,0.32,0.0012,-0.0068
1.390e-03,0.36,0.38,-0.0028,0.0036
1.392e-03,0.36,0.34,0.0028,-0.0068
1.394e-03,0.36,0.38,-0.0012,0.0036
1.396e-03,0.36,0.32,-0.002,-0.006
1.398e-03,0.36,0.38,0.000399999,0.0052
1.400e-03,0.36,0.34,0.000399999,-0.0068
1.401e-03,0.36,0.4,-0.0012,0.0036
1.403e-03,0.34,0.34,0.002,-0.006
1.405e-03,0.34,0.38,-0.0028,0.0036
1.407e-03,0.36,0.34,0.000399999,-0.0068
1.409e-03,0.36,0.38,-0.0028,0.0044
1.411e-03,0.36,0.34,-0.0012,-0.006
1.413e-03,0.38,0.38,0.000399999,0.0044
1.415e-03,0.36,0.34,-0.0012,-0.006
1.417e-03,0.36,0.4,-0.0028,0.0052
1.419e-03,0.34,0.34,0.0012,-0.006
1.421e-03,0.36,0.38,-0.0044,0.0044
1.423e-03,0.38,0.34,0.0012,-0.006
1.425e-03,0.36,0.38,-0.000400001,0.0036
1.426e-03,0.36,0.34,-0.0044,-0.006
1.428e-03,0.36,0.38,-0.002,0.0052
1.430e-03,0.36,0.34,0.0012,-0.0076
1.432e-03,0.36,0.38,0.002,0.0036
1.434e-03,0.36,0.34,0.0012,-0.006
1.436e-03,0.36,0.38,0.000399999,0.0044
1.438e-03,0.36,0.34,0.000399999,-0.0052
1.440e-03,0.36,0.38,0.0012,0.0036
1.442e-03,0.36,0.34,-0.0012,-0.006
1.444e-03,0.38,0.4,-0.0028,0.0044
1.446e-03,0.36,0.34,-0.0028,-0.006
1.448e-03,0.36,0.38,-0.000400001,0.0052
1.449e-03,0.36,0.34,0.000399999,-0.0068
1.451e-03,0.38,0.4,0.0012,0.0044
1.453e-03,0.38,0.34,-0.0028,-0.0076
1.455e-03,0.38,0.4,-0.000400001,0.0044
1.457e-03,0.38,0.34,-0.0028,-0.006
1.459e-03,0.38,0.4,-0.002,0.0036
1.461e-03,0.36,0.34,0.0028,-0.006
1.463e-03,0.36,0.4,0.000399999,0.0044
1.465e-03,0.38,0.34,-0.0012,-0.0068
1.467e-03,0.38,0.4,-0.002,0.0044
1.469e-03,0.38,0.34,-0.0028,-0.006
1.471e-03,0.36,0.4,0.002,0.0036
1.473e-03,0.36,0.36,-0.0012,-0.006
1.474e-03,0.38,0.4,0.002,0.0036
1.476e-03,0.38,0.36,-0.0012,-0.006
1.478e-03,0.38,0.4,-0.0012,0.0044
1.480e-03,0.36,0.34,-0.000400001,-0.0068
1.482e-03,0.38,0.4,0.0012,0.0036
1.484e-03,0.38,0.36,0.000399999,-0.006
1.486e-03,0.38,0.4,-0.002,0.0044
1.488e-03,0.38,0.34,0.000399999,-0.0052
1.490e-03,0.38,0.4,-0.0012,0.0036
1.492e-03,0.38,0.34,-0.000400001,-0.0076
1.494e-03,0.38,0.4,-0.0028,0.0036
1.496e-03,0.38,0.36,0.000399999,-0.0052
1.497e-03,0.38,0.4,-0.0036,0.0036
1.499e-03,0.38,0.36,-0.0012,-0.006
1.501e-03,0.38,0.4,-0.000400001,0.0044
1.503e-03,0.38,0.36,-0.000400001,-0.006
1.505e-03,0.38,0.4,-0.000400001,0.0052
1.507e-03,0.38,0.36,-0.0028,-0.0052
1.509e-03,0.38,0.4,-0.0012,0.0052
1.511e-03,0.38,0.36,-0.0012,-0.0076
1.513e-03,0.38,0.4,0.000399999,0.0052
1.515e-03,0.4,0.36,-0.0012,-0.006
1.517e-03,0.38,0.4,-0.0012,0.0052
1.519e-03,0.38,0.36,-0.002,-0.006
1.521e-03,0.38,0.4,0.0012,0.0044
1.522e-03,0.38,0.36,0.000399999,-0.006
1.524e-03,0.38,0.4,0.000399999,0.0044
1.526e-03,0.38,0.36,-0.002,-0.006
1.528e-03,0.38,0.4,-0.0012,0.0044
1.530e-03,0.38,0.36,-0.0028,-0.006
1.532e-03,0.38,0.4,-0.000400001,0.0052
1.534e-03,0.38,0.36,-0.0012,-0.0052
1.536e-03,0.4,0.4,-0.000400001,0.0044
1.538e-03,0.4,0.36,0.002,-0.0076
1.540e-03,0.4,0.42,-0.002,0.0036
1.542e-03,0.4,0.36,-0.0028,-0.0068
1.544e-03,0.4,0.42,0.0012,0.0052
1.545e-03,0.4,0.36,-0.0012,-0.006
1.547e-03,0.4,0.42,-0.0012,0.0036
1.549e-03,0.4,0.36,-0.0012,-0.006
1.551e-03,0.4,0.42,0.000399999,0.0036
1.553e-03,0.4,0.36,0.0028,-0.0068
1.555e-03,0.4,0.42,0.000399999,0.0044
1.557e-03,0.4,0.38,-0.000400001,-0.0052
1.559e-03,0.4,0.42,-0.002,0.0052
1.561e-03,0.38,0.36,0.000399999,-0.006
1.563e-03,0.4,0.42,-0.002,0.0036
1.565e-03,0.4,0.36,0.000399999,-0.0068
1.567e-03,0.4,0.42,-0.0012,0.0036
1.569e-03,0.4,0.36,0.0012,-0.006
1.570e-03,0.4,0.42,0.0028,0.0052
1.572e-03,0.42,0.38,-0.000400001,-0.006
1.574e-03,0.4,0.42,-0.0044,0.0044
1.576e-03,0.4,0.38,-0.0036,-0.0068
1.578e-03,0.4,0.42,0.002,0.0044
1.580e-03,0.4,0.38,-0.000400001,-0.006
1.582e-03,0.42,0.42,-0.0028,0.0036
1.584e-03,0.4,0.38,0.000399999,-0.006
1.586e-03,0.4,0.42,0.000399999,0.0044
1.588e-03,0.4,0.38,-0.002,-0.006
1.590e-03,0.38,0.42,-0.002,0.0044
1.592e-03,0.4,0.38,0.000399999,-0.0052
1.594e-03,0.4,0.42,-0.000400001,0.0052
1.595e-03,0.4,0.38,0.0028,-0.0052
1.597e-03,0.4,0.42,0.000399999,0.006
1.599e-03,0.4,0.38,-0.002,-0.0068
1.601e-03,0.4,0.42,-0.000400001,0.0044
1.603e-03,0.4,0.38,0.002,-0.0052
1.605e-03,0.42,0.42,-0.002,0.0044
1.607e-03,0.42,0.38,0.0012,-0.006
1.609e-03,0.4,0.44,-0.002,0.0044
1.611e-03,0.4,0.38,-0.002,-0.006
1.613e-03,0.4,0.42,0.002,0.0044
1.615e-03,0.38,0.38,-0.0012,-0.0068
1.617e-03,0.4,0.44,-0.002,0.0044
1.618e-03,0.42,0.38,0.000399999,-0.006
1.620e-03,0.4,0.44,-0.000400001,0.0052
1.622e-03,0.4,0.38,0.000399999,-0.0052
1.624e-03,0.42,0.44,-0.0012,0.006
1.626e-03,0.42,0.38,0.0028,-0.0052
1.628e-03,0.4,0.44,0.000399999,0.0044
1.630e-03,0.42,0.38,0.000399999,-0.0052
1.632e-03,0.42,0.44,0.000399999,0.0052
1.634e-03,0.4,0.38,-0.000400001,-0.0068
1.636e-03,0.42,0.44,0.0012,0.0036
1.638e-03,0.4,0.38,0.000399999,-0.0052
1.640e-03,0.4,0.44,0.000399999,0.0052
1.642e-03,0.42,0.38,-0.000400001,-0.0052
1.643e-03,0.42,0.44,0.0012,0.0044
1.645e-03,0.42,0.4,-0.000400001,-0.0052
1.647e-03,0.42,0.44,-0.000400001,0.0052
1.649e-03,0.42,0.38,0.000399999,-0.006
1.651e-03,0.42,0.44,0.000399999,0.0052
1.653e-03,0.4,0.38,-0.000400001,-0.0068
1.655e-03,0.42,0.44,-0.0012,0.0044
1.657e-03,0.42,0.4,0.000399999,-0.0076
1.659e-03,0.42,0.44,0.0012,0.0044
1.661e-03,0.44,0.4,0.0028,-0.0052
1.663e-03,0.42,0.46,0.002,0.0068
1.665e-03,0.42,0.4,-0.000400001,-0.006
1.666e-03,0.4,0.44,-0.002,0.0044
1.668e-03,0.42,0.4,-0.002,-0.0052
1.670e-03,0.44,0.44,0.000399999,0.0044
1.672e-03,0.44,0.4,-0.0028,-0.006
1.674e-03,0.42,0.44,0.002,0.0044
1.676e-03,0.42,0.4,0.0012,-0.0068
1.678e-03,0.42,0.46,-0.000400001,0.0052
1.680e-03,0.42,0.4,0.000399999,-0.0052
1.682e-03,0.42,0.46,-0.0028,0.0044
1.684e-03,0.42,0.4,-0.0028,-0.006
1.686e-03,0.44,0.44,-0.0012,0.0052
1.688e-03,0.42,0.4,0.0012,-0.0052
1.690e-03,0.44,0.46,-0.0012,0.006
1.691e-03,0.42,0.4,-0.000400001,-0.0052
1.693e-03,0.42,0.46,-0.002,0.0052
1.695e-03,0.42,0.4,-0.0012,-0.0052
1.697e-03,0.42,0.46,-0.0012,0.0044
1.699e-03,0.44,0.4,-0.0012,-0.006
1.701e-03,0.44,0.46,0.000399999,0.0052
1.703e-03,0.44,0.4,-0.0012,-0.0068
1.705e-03,0.44,0.46,0.002,0.0044
1.707e-03,0.42,0.4,-0.000400001,-0.006
1.709e-03,0.44,0.46,0.000399999,0.006
1.711e-03,0.44,0.4,-0.000400001,-0.0052
1.713e-03,0.44,0.46,-0.000400001,0.006
1.714e-03,0.44,0.4,0.0012,-0.0044
1.716e-03,0.44,0.46,-0.0012,0.0052
1.718e-03,0.44,0.42,-0.0012,-0.0052
1.720e-03,0.42,0.46,-0.002,0.0052
1.722e-03,0.44,0.42,0.002,-0.0044
1.724e-03,0.44,0.46,0.0012,0.0052
1.726e-03,0.44,0.4,0.000399999,-0.0052
1.728e-03,0.44,0.46,0.000399999,0.0052
1.730e-03,0.42,0.4,-0.000400001,-0.0052
1.732e-03,0.44,0.46,0.002,0.0052
1.734e-03,0.44,0.42,0.000399999,-0.0052
1.736e-03,0.44,0.46,0.002,0.0052
1.738e-03,0.44,0.4,0.0028,-0.0044
1.739e-03,0.44,0.46,0.0028,0.006
1.741e-03,0.44,0.4,0.000399999,-0.0052
1.743e-03,0.44,0.46,-0.0012,0.0052
1.745e-03,0.44,0.42,-0.002,-0.006
1.747e-03,0.44,0.46,0.000399999,0.0084
1.749e-03,0.44,0.42,0.002,-0.006
1.751e-03,0.46,0.46,-0.000400001,0.006
1.753e-03,0.46,0.42,0.0028,-0.0036
1.755e-03,0.44,0.46,-0.0012,0.006
1.757e-03,0.44,0.42,0.0012,-0.0044
1.759e-03,0.46,0.46,0.000399999,0.0068
1.761e-03,0.44,0.42,0.000399999,-0.0028
1.762e-03,0.44,0.46,-0.000400001,0.006
1.764e-03,0.44,0.42,0.002,-0.0044
1.766e-03,0.46,0.48,0.000399999,0.006
1.768e-03,0.44,0.42,-0.002,-0.0044
1.770e-03,0.44,0.48,0.0052,0.006
1.772e-03,0.46,0.42,-0.0012,-0.0044
1.774e-03,0.46,0.48,0.0012,0.006
1.776e-03,0.46,0.42,0.000399999,-0.0036
1.778e-03,0.46,0.48,0.0028,0.0076
1.780e-03,0.44,0.42,0.002,-0.0036
1.782e-03,0.44,0.48,0.002,0.006
1.784e-03,0.46,0.42,0.0012,-0.002
1.786e-03,0.46,0.48,0.0036,0.0076
1.787e-03,0.44,0.42,0.0012,-0.002
1.789e-03,0.46,0.48,0.002,0.0068
1.791e-03,0.46,0.42,0.002,-0.0028
1.793e-03,0.46,0.48,-0.000400001,0.0084
1.795e-03,0.44,0.42,0.0036,-0.002
1.797e-03,0.46,0.48,0.0044,0.0076
1.799e-03,0.44,0.42,0.0012,-0.0036
1.801e-03,0.46,0.48,0.0012,0.0084
1.803e-03,0.46,0.42,0.000399999,-0.0012
1.805e-03,0.46,0.48,0.0044,0.0092
1.807e-03,0.44,0.42,0.002,-0.0012
1.809e-03,0.46,0.48,0.000399999,0.0092
1.810e-03,0.46,0.42,0.0076,-0.0028
1.812e-03,0.46,0.48,0.0044,0.0116
1.814e-03,0.46,0.42,0.0028,-0.002
1.816e-03,0.46,0.48,0.0036,0.01
1.818e-03,0.46,0.42,0.0044,-0.000400001
1.820e-03,0.46,0.48,0.0036,0.01
1.822e-03,0.46,0.44,0.0052,0.0012
1.824e-03,0.46,0.48,0.0052,0.0116
1.826e-03,0.46,0.44,0.006,0.0012
1.828e-03,0.46,0.48,0.0076,0.0116
1.830e-03,0.46,0.44,0.0084,0.0012
1.832e-03,0.46,0.48,0.0052,0.0124
1.834e-03,0.46,0.42,0.0084,0.002
1.835e-03,0.46,0.48,0.01,0.0116
1.837e-03,0.46,0.44,0.0068,0.0028
1.839e-03,0.46,0.48,0.0052,0.0148
1.841e-03,0.46,0.44,0.0092,0.0036
1.843e-03,0.46,0.48,0.0092,0.0156
1.845e-03,0.48,0.44,0.0068,0.0044
1.847e-03,0.46,0.48,0.0108,0.0164
1.849e-03,0.46,0.44,0.0116,0.006
1.851e-03,0.46,0.5,0.0132,0.018
1.853e-03,0.46,0.44,0.0108,0.0084
1.855e-03,0.46,0.5,0.0132,0.0188
1.857e-03,0.46,0.44,0.0172,0.01
1.858e-03,0.48,0.5,0.0172,0.0212
1.860e-03,0.48,0.44,0.0188,0.0124
1.862e-03,0.48,0.5,0.0188,0.0236
1.864e-03,0.48,0.44,0.0236,0.0148
1.866e-03,0.46,0.5,0.0244,0.026
1.868e-03,0.46,0.44,0.0244,0.018
1.870e-03,0.46,0.5,0.026,0.0292
1.872e-03,0.48,0.44,0.0284,0.0196
1.874e-03,0.48,0.5,0.0276,0.034
1.876e-03,0.46,0.44,0.0292,0.0244
1.878e-03,0.48,0.5,0.034,0.0388
1.880e-03,0.48,0.44,0.0324,0.03
1.882e-03,0.46,0.5,0.042,0.0436
1.883e-03,0.48,0.44,0.0404,0.0316
1.885e-03,0.46,0.5,0.0444,0.0492
1.887e-03,0.46,0.44,0.046,0.0396
1.889e-03,0.46,0.5,0.054,0.058
1.891e-03,0.48,0.44,0.0548,0.0484
1.893e-03,0.46,0.5,0.0596,0.0636
1.895e-03,0.48,0.44,0.0628,0.0556
1.897e-03,0.48,0.5,0.066,0.0716
1.899e-03,0.48,0.44,0.0724,0.0636
1.901e-03,0.48,0.5,0.0764,0.0796
1.903e-03,0.48,0.44,0.0796,0.0724
1.905e-03,0.48,0.5,0.0804,0.086
1.906e-03,0.48,0.44,0.082,0.0772
1.908e-03,0.5,0.5,0.0836,0.0884
1.910e-03,0.48,0.44,0.0844,0.0788
1.912e-03,0.48,0.5,0.0804,0.0884
1.914e-03,0.48,0.44,0.0828,0.0732
1.916e-03,0.48,0.5,0.0772,0.0868
1.918e-03,0.48,0.46,0.0716,0.0668
1.920e-03,0.48,0.52,0.0708,0.0812
1.922e-03,0.48,0.46,0.0636,0.0572
1.924e-03,0.48,0.52,0.062,0.074
1.926e-03,0.5,0.46,0.0556,0.0476
1.928e-03,0.48,0.52,0.05,0.0652
1.930e-03,0.5,0.46,0.0492,0.0404
1.931e-03,0.48,0.5,0.0428,0.0556
1.933e-03,0.48,0.46,0.0404,0.0324
1.935e-03,0.5,0.5,0.042,0.0492
1.937e-03,0.48,0.46,0.0348,0.0276
1.939e-03,0.48,0.52,0.0308,0.0412
1.941e-03,0.5,0.46,0.0292,0.0228
1.943e-03,0.48,0.52,0.0292,0.0356
1.945e-03,0.48,0.46,0.0268,0.0188
1.947e-03,0.48,0.52,0.0236,0.03
1.949e-03,0.5,0.46,0.0252,0.014
1.951e-03,0.48,0.52,0.0188,0.0268
1.953e-03,0.5,0.46,0.0148,0.0116
1.954e-03,0.5,0.52,0.0164,0.0236
1.956e-03,0.5,0.46,0.0172,0.01
1.958e-03,0.48,0.52,0.0156,0.022
1.960e-03,0.5,0.46,0.014,0.0076
1.962e-03,0.5,0.52,0.0116,0.0204
1.964e-03,0.48,0.46,0.0124,0.006
1.966e-03,0.5,0.52,0.0116,0.018
1.968e-03,0.5,0.46,0.0124,0.0052
1.970e-03,0.5,0.52,0.0132,0.0156
1.972e-03,0.5,0.46,0.0108,0.0044
1.974e-03,0.5,0.52,0.0092,0.0156
1.976e-03,0.5,0.46,0.0084,0.0028
1.978e-03,0.5,0.52,0.0068,0.0132
1.979e-03,0.48,0.46,0.0092,0.002
1.981e-03,0.5,0.52,0.0052,0.0132
1.983e-03,0.5,0.46,0.0068,0.0012
1.985e-03,0.5,0.52,0.0084,0.0124
1.987e-03,0.5,0.46,0.006,0.000399999
1.989e-03,0.5,0.52,0.0052,0.0124
1.991e-03,0.5,0.46,0.006,0.002
1.993e-03,0.5,0.52,0.0076,0.0124
1.995e-03,0.5,0.48,0.0052,0.0012
1.997e-03,0.52,0.54,0.0044,0.0132
1.999e-03,0.5,0.48,0.0092,0.0012
2.001e-03,0.5,0.54,0.0084,0.0116
2.002e-03,0.5,0.48,0.0068,0.0012
2.004e-03,0.5,0.54,0.0084,0.0116
2.006e-03,0.52,0.48,0.0068,0.000399999
2.008e-03,0.5,0.54,0.01,0.0124
2.010e-03,0.5,0.46,0.0068,0.0012
2.012e-03,0.5,0.52,0.0068,0.0108
2.014e-03,0.5,0.48,0.0044,-0.000400001
2.016e-03,0.5,0.54,0.0068,0.0108
2.018e-03,0.5,0.46,0.0052,-0.000400001
2.020e-03,0.52,0.52,0.002,0.0108
2.022e-03,0.5,0.48,0.0036,-0.0012
2.024e-03,0.5,0.54,0.0028,0.0084
2.026e-03,0.52,0.48,0.0052,-0.0012
2.027e-03,0.5,0.54,0.0028,0.0092
2.029e-03,0.5,0.48,0.0012,-0.0012
2.031e-03,0.52,0.54,0.0012,0.0084
2.033e-03,0.52,0.48,0.0012,-0.0028
2.035e-03,0.5,0.54,0.0036,0.0084
2.037e-03,0.5,0.48,0.002,-0.0036
2.039e-03,0.5,0.54,0.0036,0.006
2.041e-03,0.52,0.48,-0.000400001,-0.0044
2.043e-03,0.52,0.54,-0.000400001,0.006
2.045e-03,0.5,0.48,0.002,-0.0044
2.047e-03,0.52,0.54,-0.000400001,0.006
2.049e-03,0.52,0.48,0.0012,-0.0036
2.050e-03,0.52,0.54,0.0036,0.006
2.052e-03,0.52,0.48,0.000399999,-0.006
2.054e-03,0.5,0.54,0.000399999,0.006
2.056e-03,0.52,0.48,-0.000400001,-0.0044
2.058e-03,0.52,0.54,0.0012,0.006
2.060e-03,0.52,0.48,-0.002,-0.0052
2.062e-03,0.5,0.54,-0.002,0.0068
2.064e-03,0.5,0.48,0.0012,-0.0044
2.066e-03,0.52,0.54,0.0012,0.006
2.068e-03,0.5,0.5,-0.000400001,-0.0052
2.070e-03,0.52,0.54,0.000399999,0.006
2.072e-03,0.52,0.48,-0.0036,-0.0044
2.074e-03,0.52,0.54,-0.000400001,0.0068
2.075e-03,0.52,0.48,0.000399999,-0.0052
2.077e-03,0.52,0.54,0.0012,0.0052
2.079e-03,0.52,0.48,-0.002,-0.006
2.081e-03,0.52,0.54,0.0012,0.0052
2.083e-03,0.54,0.5,-0.002,-0.0044
2.085e-03,0.54,0.54,0.000399999,0.0052
2.087e-03,0.52,0.5,0.0012,-0.0044
2.089e-03,0.54,0.54,-0.0012,0.006
2.091e-03,0.54,0.5,0.000399999,-0.0052
2.093e-03,0.54,0.56,0.0012,0.0044
2.095e-03,0.52,0.5,0.0012,-0.0052
2.097e-03,0.52,0.54,0.0012,0.0052
2.098e-03,0.52,0.5,0.002,-0.0052
2.100e-03,0.52,0.56,0.000399999,0.0052
2.102e-03,0.52,0.5,0.0012,-0.006
2.104e-03,0.54,0.54,-0.0012,0.0052
2.106e-03,0.52,0.5,-0.0012,-0.006
2.108e-03,0.54,0.56,-0.0028,0.0052
2.110e-03,0.52,0.5,-0.000400001,-0.0052
2.112e-03,0.52,0.54,-0.0012,0.006
2.114e-03,0.54,0.5,0.000399999,-0.006
2.116e-03,0.54,0.56,0.0012,0.0052
2.118e-03,0.54,0.5,0.002,-0.006
2.120e-03,0.54,0.56,-0.002,0.0044
2.122e-03,0.52,0.5,0.0012,-0.006
2.123e-03,0.54,0.56,0.000399999,0.0044
2.125e-03,0.56,0.5,-0.0044,-0.0052
2.127e-03,0.54,0.56,-0.0012,0.006
2.129e-03,0.54,0.5,0.0012,-0.006
2.131e-03,0.52,0.56,-0.002,0.0068
2.133e-03,0.52,0.5,0.0044,-0.006
2.135e-03,0.54,0.56,-0.0028,0.0068
2.137e-03,0.54,0.5,0.000399999,-0.006
2.139e-03,0.54,0.56,-0.0012,0.0052
2.141e-03,0.54,0.5,-0.0028,-0.0052
2.143e-03,0.54,0.56,-0.0036,0.0044
2.145e-03,0.54,0.5,0.002,-0.006
2.146e-03,0.52,0.56,-0.000400001,0.0044
2.148e-03,0.54,0.5,-0.0012,-0.0068
2.150e-03,0.54,0.56,0.000399999,0.0052
2.152e-03,0.54,0.5,0.000399999,-0.006
2.154e-03,0.54,0.56,0.002,0.0044
2.156e-03,0.54,0.5,0.0012,-0.006
2.158e-03,0.54,0.56,-0.0036,0.0036
2.160e-03,0.56,0.5,0.002,-0.006
2.162e-03,0.54,0.56,-0.000400001,0.0052
2.164e-03,0.54,0.5,0.000399999,-0.0052
2.166e-03,0.54,0.56,0.0012,0.0044
2.168e-03,0.54,0.5,-0.0012,-0.006
2.170e-03,0.54,0.56,-0.0028,0.0036
2.171e-03,0.54,0.52,-0.0036,-0.0076
2.173e-03,0.54,0.56,-0.0012,0.0036
2.175e-03,0.56,0.52,0.000399999,-0.006
2.177e-03,0.54,0.56,0.000399999,0.0052
2.179e-03,0.54,0.5,-0.002,-0.0068
2.181e-03,0.54,0.56,-0.0012,0.0044
2.183e-03,0.54,0.52,-0.000400001,-0.006
2.185e-03,0.54,0.56,0.000399999,0.0044
2.187e-03,0.56,0.5,-0.0012,-0.0052
2.189e-03,0.54,0.58,-0.0028,0.0044
2.191e-03,0.56,0.52,-0.0036,-0.0068
2.193e-03,0.54,0.56,-0.000400001,0.0044
2.195e-03,0.54,0.52,-0.002,-0.006
2.196e-03,0.54,0.58,-0.0012,0.0052
2.198e-03,0.54,0.52,-0.002,-0.0068
2.200e-03,0.56,0.58,-0.000400001,0.0044
2.202e-03,0.54,0.52,0.002,-0.0068
2.204e-03,0.54,0.58,-0.0028,0.0044
2.206e-03,0.56,0.52,-0.0012,-0.006
2.208e-03,0.56,0.58,-0.0012,0.0036
2.210e-03,0.56,0.52,-0.002,-0.006
2.212e-03,0.56,0.58,-0.0012,0.0036
2.214e-03,0.56,0.52,-0.0012,-0.0052
2.216e-03,0.56,0.58,-0.0028,0.0044
2.218e-03,0.56,0.52,-0.0036,-0.0068
2.219e-03,0.56,0.58,-0.000400001,0.0044
2.221e-03,0.56,0.52,-0.0012,-0.0052
2.223e-03,0.56,0.6,0.000399999,0.0036
2.225e-03,0.56,0.52,-0.000400001,-0.006
2.227e-03,0.56,0.58,-0.0012,0.0036
2.229e-03,0.56,0.52,-0.0012,-0.0068
2.231e-03,0.56,0.58,-0.0012,0.0036
2.233e-03,0.56,0.52,-0.0044,-0.0068
2.235e-03,0.56,0.58,-0.0028,0.0036
2.237e-03,0.56,0.52,0.000399999,-0.0076
2.239e-03,0.56,0.58,-0.0012,0.0044
2.241e-03,0.58,0.52,-0.0012,-0.006
2.243e-03,0.56,0.58,-0.000400001,0.0028
2.244e-03,0.56,0.52,-0.002,-0.006
2.246e-03,0.56,0.58,-0.0028,0.0036
2.248e-03,0.56,0.52,-0.002,-0.006
2.250e-03,0.54,0.58,0.000399999,0.0036
2.252e-03,0.56,0.52,0.000399999,-0.0068
2.254e-03,0.56,0.58,-0.002,0.0036
2.256e-03,0.58,0.54,-0.0028,-0.0068
2.258e-03,0.56,0.58,-0.0036,0.0036
2.260e-03,0.56,0.52,-0.0036,-0.0076
2.262e-03,0.56,0.58,0.0012,0.0036
2.264e-03,0.56,0.52,-0.0012,-0.006
2.266e-03,0.58,0.58,-0.002,0.0036
2.267e-03,0.58,0.54,-0.002,-0.006
2.269e-03,0.56,0.58,0.000399999,0.0036
2.271e-03,0.58,0.54,-0.0012,-0.0068
2.273e-03,0.56,0.6,-0.000400001,0.0036
2.275e-03,0.58,0.54,-0.0012,-0.0068
2.277e-03,0.56,0.58,-0.0012,0.0044
2.279e-03,0.58,0.52,-0.0028,-0.0084
2.281e-03,0.56,0.6,-0.0036,0.0036
2.283e-03,0.56,0.54,-0.0012,-0.0068
2.285e-03,0.58,0.58,-0.0044,0.0036
2.287e-03,0.56,0.54,-0.0028,-0.0068
2.289e-03,0.56,0.6,-0.0012,0.0028
2.291e-03,0.58,0.54,-0.0012,-0.006
2.292e-03,0.58,0.6,-0.0028,0.0036
2.294e-03,0.58,0.52,-0.000400001,-0.006
2.296e-03,0.58,0.6,-0.002,0.0044
2.298e-03,0.58,0.54,-0.0028,-0.006
2.300e-03,0.58,0.6,-0.0012,0.0036
2.302e-03,0.56,0.54,-0.000400001,-0.0068
2.304e-03,0.56,0.6,0.000399999,0.0044
2.306e-03,0.58,0.54,-0.0012,-0.006
2.308e-03,0.58,0.6,-0.0044,0.0052
2.310e-03,0.58,0.54,-0.002,-0.0052
2.312e-03,0.58,0.6,-0.0012,0.0036
2.314e-03,0.56,0.54,-0.0036,-0.006
2.315e-03,0.58,0.6,-0.0012,0.0044
2.317e-03,0.58,0.54,-0.002,-0.006
2.319e-03,0.56,0.6,-0.0036,0.0044
2.321e-03,0.58,0.54,0.0012,-0.006
2.323e-03,0.58,0.6,-0.0012,0.006
2.325e-03,0.58,0.54,-0.0012,-0.0076
2.327e-03,0.6,0.6,-0.0012,0.0044
2.329e-03,0.58,0.54,0.000399999,-0.0076
2.331e-03,0.56,0.6,-0.0012,0.0044
2.333e-03,0.56,0.54,-0.0012,-0.006
2.335e-03,0.58,0.6,-0.002,0.0052
2.337e-03,0.58,0.54,-0.0036,-0.006
2.339e-03,0.58,0.6,-0.002,0.0036
2.340e-03,0.58,0.56,-0.002,-0.0076
2.342e-03,0.58,0.6,-0.006,0.0036
2.344e-03,0.58,0.54,-0.0028,-0.006
2.346e-03,0.58,0.6,-0.002,0.0044
2.348e-03,0.58,0.56,-0.0012,-0.0076
2.350e-03,0.58,0.6,-0.0012,0.0036
2.352e-03,0.6,0.56,0.000399999,-0.0068
2.354e-03,0.58,0.62,-0.0012,0.0044
2.356e-03,0.58,0.56,0.0012,-0.006
2.358e-03,0.58,0.62,0.0012,0.0044
2.360e-03,0.58,0.56,0.0012,-0.0068
2.362e-03,0.58,0.6,-0.0028,0.0036
2.363e-03,0.58,0.56,-0.0044,-0.0068
2.365e-03,0.6,0.6,-0.0012,0.0036
2.367e-03,0.6,0.56,-0.002,-0.0068
2.369e-03,0.58,0.62,-0.000400001,0.0044
2.371e-03,0.58,0.56,-0.0028,-0.0076
2.373e-03,0.58,0.6,-0.0036,0.0036
2.375e-03,0.58,0.56,-0.0012,-0.0052
2.377e-03,0.58,0.62,-0.000400001,0.0036
2.379e-03,0.58,0.56,-0.000400001,-0.0068
2.381e-03,0.6,0.62,-0.0028,0.0044
2.383e-03,0.58,0.56,-0.0012,-0.006
2.385e-03,0.58,0.62,-0.0012,0.0036
2.387e-03,0.6,0.56,0.0012,-0.0068
2.388e-03,0.58,0.62,0.000399999,0.0036
2.390e-03,0.58,0.56,-0.002,-0.0076
2.392e-03,0.6,0.62,-0.000400001,0.0044
2.394e-03,0.58,0.56,-0.0012,-0.0068
2.396e-03,0.58,0.62,-0.002,0.0044
2.398e-03,0.6,0.56,-0.002,-0.0084
2.400e-03,0.6,0.62,-0.002,0.0044
2.402e-03,0.6,0.56,-0.002,-0.0068
2.404e-03,0.6,0.62,-0.002,0.0036
2.406e-03,0.58,0.56,-0.0028,-0.0084
2.408e-03,0.6,0.62,-0.0036,0.0036
2.410e-03,0.6,0.56,-0.002,-0.006
2.411e-03,0.6,0.62,-0.000400001,0.0052
2.413e-03,0.6,0.56,-0.000400001,-0.0068
2.415e-03,0.6,0.62,-0.0012,0.0044
2.417e-03,0.6,0.56,-0.000400001,-0.006
2.419e-03,0.6,0.62,-0.000400001,0.0036
2.421e-03,0.6,0.56,0.0012,-0.0076
2.423e-03,0.6,0.62,-0.002,0.0044
2.425e-03,0.6,0.56,-0.0052,-0.0076
2.427e-03,0.6,0.62,-0.000400001,0.0036
2.429e-03,0.62,0.56,0.0012,-0.0076
2.431e-03,0.6,0.62,-0.0012,0.0036
2.433e-03,0.6,0.56,-0.000400001,-0.006
2.435e-03,0.6,0.62,0.000399999,0.0052
2.436e-03,0.6,0.56,-0.002,-0.0068
2.438e-03,0.58,0.62,0.002,0.0052
2.440e-03,0.62,0.56,0.000399999,-0.0068
2.442e-03,0.6,0.62,-0.0028,0.0036
2.444e-03,0.62,0.58,-0.0036,-0.0068
2.446e-03,0.62,0.64,-0.0028,0.0036
2.448e-03,0.6,0.58,-0.0012,-0.006
2.450e-03,0.62,0.62,-0.002,0.0036
2.452e-03,0.6,0.58,-0.000400001,-0.0076
2.454e-03,0.6,0.62,0.000399999,0.0036
2.456e-03,0.6,0.58,-0.0028,-0.0068
2.458e-03,0.6,0.62,0.0012,0.0036
2.459e-03,0.6,0.56,-0.0028,-0.0068
2.461e-03,0.6,0.64,-0.0028,0.0044
2.463e-03,0.6,0.58,-0.000400001,-0.006
2.465e-03,0.62,0.64,-0.002,0.0036
2.467e-03,0.6,0.58,-0.0044,-0.0068
2.469e-03,0.62,0.64,-0.0012,0.0028
2.471e-03,0.62,0.58,0.0012,-0.0068
2.473e-03,0.6,0.64,-0.0044,0.0036
2.475e-03,0.62,0.58,-0.0036,-0.0068
2.477e-03,0.6,0.64,-0.0028,0.0044
2.479e-03,0.6,0.58,-0.0036,-0.0068
2.481e-03,0.6,0.64,-0.002,0.0036
2.483e-03,0.62,0.58,-0.000400001,-0.006
2.484e-03,0.62,0.64,-0.002,0.0036
2.486e-03,0.6,0.58,-0.0028,-0.0068
2.488e-03,0.62,0.64,-0.0036,0.0036
2.490e-03,0.62,0.58,-0.0012,-0.0068
2.492e-03,0.62,0.64,0.0012,0.0036
2.494e-03,0.6,0.58,-0.0036,-0.0068
2.496e-03,0.62,0.64,-0.0044,0.0044
2.498e-03,0.62,0.58,-0.0028,-0.0068
2.500e-03,0.62,0.64,-0.0012,0.0044
2.502e-03,0.62,0.58,-0.0036,-0.0068
2.504e-03,0.62,0.64,-0.000400001,0.0044
2.506e-03,0.6,0.58,-0.0052,-0.0068
2.507e-03,0.62,0.64,-0.0052,0.0052
2.509e-03,0.62,0.58,0.0012,-0.0092
2.511e-03,0.62,0.64,-0.0036,0.0044
2.513e-03,0.62,0.58,0.0012,-0.006
2.515e-03,0.62,0.64,-0.002,0.0044
2.517e-03,0.62,0.58,-0.0012,-0.0068
2.519e-03,0.62,0.64,-0.0036,0.0044
2.521e-03,0.62,0.6,-0.0052,-0.0084
2.523e-03,0.62,0.64,0.000399999,0.0036
2.525e-03,0.62,0.6,-0.0036,-0.006
2.527e-03,0.64,0.64,0.000399999,0.0028
2.529e-03,0.62,0.6,-0.0036,-0.006
2.531e-03,0.62,0.64,-0.0028,0.0036
2.532e-03,0.62,0.58,-0.0036,-0.0068
2.534e-03,0.64,0.64,-0.002,0.0044
2.536e-03,0.62,0.6,-0.0036,-0.006
2.538e-03,0.62,0.64,0.000399999,0.0052
2.540e-03,0.6,0.6,-0.0036,-0.006
2.542e-03,0.62,0.64,-0.0028,0.0036
2.544e-03,0.62,0.6,-0.0012,-0.0068
2.546e-03,0.62,0.66,-0.002,0.0036
2.548e-03,0.64,0.6,-0.002,-0.0068
2.550e-03,0.62,0.64,0.000399999,0.0036
2.552e-03,0.62,0.6,-0.0028,-0.0068
2.554e-03,0.62,0.64,-0.0012,0.0036
2.555e-03,0.64,0.6,-0.0036,-0.0068
2.557e-03,0.62,0.66,-0.0012,0.0036
2.559e-03,0.62,0.6,-0.0012,-0.0068
2.561e-03,0.64,0.66,-0.002,0.0044
2.563e-03,0.64,0.6,-0.000400001,-0.006
2.565e-03,0.64,0.66,-0.000400001,0.0044
2.567e-03,0.64,0.6,-0.002,-0.0084
2.569e-03,0.62,0.66,-0.0036,0.0036
2.571e-03,0.62,0.6,-0.0012,-0.006
2.573e-03,0.62,0.66,-0.0012,0.0036
2.575e-03,0.64,0.6,-0.0044,-0.0068
2.577e-03,0.64,0.66,-0.000400001,0.0044
2.579e-03,0.64,0.6,0.0012,-0.006
2.580e-03,0.64,0.66,0.0012,0.0028
2.582e-03,0.64,0.6,0.000399999,-0.006
2.584e-03,0.62,0.66,0.0012,0.0044
2.586e-03,0.64,0.6,-0.0044,-0.0068
2.588e-03,0.64,0.66,-0.000400001,0.0044
2.590e-03,0.64,0.6,-0.002,-0.0068
2.592e-03,0.62,0.66,-0.000400001,0.0052
2.594e-03,0.62,0.6,-0.0012,-0.0084
2.596e-03,0.64,0.66,-0.000400001,0.0044
2.598e-03,0.64,0.6,-0.002,-0.006
2.600e-03,0.64,0.66,-0.002,0.0044
2.602e-03,0.64,0.6,-0.0012,-0.0068
2.603e-03,0.64,0.66,-0.0012,0.0044
2.605e-03,0.64,0.6,-0.000400001,-0.0068
2.607e-03,0.64,0.66,-0.0028,0.0036
2.609e-03,0.64,0.6,-0.0028,-0.006
2.611e-03,0.66,0.66,-0.000400001,0.0028
2.613e-03,0.62,0.6,-0.0012,-0.006
2.615e-03,0.64,0.66,-0.0028,0.0044
2.617e-03,0.66,0.6,-0.0028,-0.006
2.619e-03,0.64,0.66,-0.0028,0.0036
2.621e-03,0.64,0.6,0.002,-0.006
2.623e-03,0.64,0.66,-0.0044,0.0044
2.625e-03,0.64,0.6,0.000399999,-0.006
2.627e-03,0.66,0.66,-0.0012,0.0044
2.628e-03,0.64,0.6,-0.000400001,-0.0068
2.630e-03,0.64,0.66,-0.0036,0.0044
2.632e-03,0.66,0.62,-0.0036,-0.006
2.634e-03,0.64,0.66,-0.0036,0.0044
2.636e-03,0.64,0.62,-0.002,-0.0076
2.638e-03,0.64,0.66,-0.0028,0.006
2.640e-03,0.64,0.62,0.0036,-0.0076
2.642e-03,0.64,0.66,-0.0012,0.0044
2.644e-03,0.64,0.62,-0.0012,-0.006
2.646e-03,0.64,0.66,-0.0012,0.0044
2.648e-03,0.64,0.62,-0.0028,-0.0068
2.650e-03,0.66,0.66,-0.0028,0.0052
2.651e-03,0.64,0.6,-0.0052,-0.006
2.653e-03,0.64,0.66,-0.0012,0.0044
2.655e-03,0.64,0.6,-0.002,-0.0068
2.657e-03,0.64,0.66,-0.002,0.0028
2.659e-03,0.64,0.62,-0.000400001,-0.006
2.661e-03,0.64,0.66,-0.002,0.0044
2.663e-03,0.64,0.62,-0.002,-0.006
2.665e-03,0.64,0.68,-0.0012,0.0044
2.667e-03,0.64,0.6,-0.002,-0.0076
2.669e-03,0.64,0.66,-0.0012,0.0044
2.671e-03,0.64,0.6,0.0028,-0.006
2.673e-03,0.64,0.66,-0.0012,0.0044
2.675e-03,0.64,0.62,-0.0052,-0.0068
2.676e-03,0.64,0.66,-0.002,0.0036
2.678e-03,0.64,0.6,-0.0012,-0.006
2.680e-03,0.64,0.66,-0.000400001,0.0036
2.682e-03,0.64,0.62,-0.000400001,-0.0076
2.684e-03,0.64,0.66,-0.002,0.0052
2.686e-03,0.64,0.6,-0.002,-0.0068
2.688e-03,0.62,0.66,-0.0012,0.0036
2.690e-03,0.62,0.6,-0.0028,-0.0076
2.692e-03,0.64,0.66,-0.0028,0.0036
2.694e-03,0.62,0.6,-0.000400001,-0.0076
2.696e-03,0.64,0.66,-0.0044,0.0036
2.698e-03,0.64,0.6,0.0012,-0.0068
2.699e-03,0.64,0.66,-0.0028,0.0036
2.701e-03,0.66,0.6,-0.0012,-0.0076
2.703e-03,0.64,0.66,-0.000400001,0.0036
2.705e-03,0.62,0.6,0.000399999,-0.0076
2.707e-03,0.64,0.66,-0.0028,0.0044
2.709e-03,0.64,0.6,-0.0028,-0.0068
2.711e-03,0.64,0.66,-0.0036,0.0036
2.713e-03,0.64,0.6,-0.0036,-0.006
2.715e-03,0.62,0.66,-0.002,0.0036
2.717e-03,0.64,0.6,-0.0012,-0.0076
2.719e-03,0.64,0.66,-0.002,0.0036
2.721e-03,0.64,0.6,-0.0012,-0.0084
2.723e-03,0.64,0.66,0.0012,0.0044
2.724e-03,0.64,0.6,-0.000400001,-0.0068
2.726e-03,0.62,0.66,-0.0012,0.0028
2.728e-03,0.62,0.6,-0.0036,-0.0068
2.730e-03,0.64,0.66,-0.0012,0.0044
2.732e-03,0.64,0.6,-0.0036,-0.0068
2.734e-03,0.64,0.66,-0.000400001,0.0028
2.736e-03,0.64,0.58,-0.0028,-0.006
2.738e-03,0.62,0.64,-0.0012,0.0036
2.740e-03,0.64,0.6,-0.000400001,-0.006
2.742e-03,0.64,0.66,-0.0052,0.0044
2.744e-03,0.64,0.6,-0.0036,-0.0076
2.746e-03,0.62,0.66,-0.002,0.0036
2.747e-03,0.62,0.6,0.000399999,-0.006
2.749e-03,0.64,0.64,-0.0044,0.0036
2.751e-03,0.62,0.58,-0.0012,-0.0076
2.753e-03,0.62,0.64,-0.000400001,0.0036
2.755e-03,0.62,0.58,-0.0044,-0.0076
2.757e-03,0.62,0.64,-0.0012,0.0052
2.759e-03,0.62,0.6,-0.000400001,-0.0068
2.761e-03,0.62,0.64,-0.0036,0.0044
2.763e-03,0.62,0.6,-0.0012,-0.0068
2.765e-03,0.62,0.66,-0.0028,0.0036
2.767e-03,0.62,0.58,-0.0012,-0.0068
2.769e-03,0.62,0.64,-0.0012,0.0036
2.771e-03,0.62,0.58,-0.0036,-0.0076
2.772e-03,0.62,0.64,-0.002,0.0028
2.774e-03,0.6,0.58,-0.002,-0.0068
2.776e-03,0.62,0.64,-0.0044,0.0036
2.778e-03,0.62,0.58,-0.0036,-0.0068
2.780e-03,0.62,0.64,-0.0012,0.0044
2.782e-03,0.62,0.58,-0.0036,-0.006
2.784e-03,0.62,0.64,-0.0012,0.0036
2.786e-03,0.6,0.58,-0.0012,-0.006
2.788e-03,0.6,0.64,-0.000400001,0.0028
2.790e-03,0.62,0.58,0.0028,-0.0076
2.792e-03,0.62,0.64,0.0012,0.0028
2.794e-03,0.62,0.58,-0.002,-0.0068
2.795e-03,0.62,0.64,-0.0044,0.0044
2.797e-03,0.62,0.58,0.0012,-0.0076
2.799e-03,0.6,0.64,-0.0012,0.0044
2.801e-03,0.62,0.58,-0.0044,-0.0068
2.803e-03,0.6,0.64,-0.0012,0.0044
2.805e-03,0.6,0.58,-0.0028,-0.0068
2.807e-03,0.6,0.62,0.000399999,0.0044
2.809e-03,0.62,0.58,-0.0012,-0.006
2.811e-03,0.6,0.64,0.0012,0.0044
2.813e-03,0.6,0.58,0.000399999,-0.0076
2.815e-03,0.6,0.64,-0.002,0.0044
2.817e-03,0.6,0.58,-0.0052,-0.006
2.819e-03,0.6,0.64,-0.002,0.0036
2.820e-03,0.62,0.58,-0.0012,-0.0068
2.822e-03,0.6,0.62,-0.0028,0.0044
2.824e-03,0.6,0.58,-0.0012,-0.0068
2.826e-03,0.6,0.64,-0.0036,0.0036
2.828e-03,0.6,0.58,-0.0028,-0.0068
2.830e-03,0.6,0.62,-0.0028,0.0044
2.832e-03,0.62,0.56,-0.0044,-0.0068
2.834e-03,0.6,0.62,-0.0012,0.0036
2.836e-03,0.6,0.56,-0.0012,-0.0076
2.838e-03,0.6,0.62,-0.000400001,0.0044
2.840e-03,0.6,0.56,-0.0012,-0.006
2.842e-03,0.62,0.62,-0.0036,0.0036
2.844e-03,0.6,0.58,-0.002,-0.0068
2.845e-03,0.6,0.62,-0.0052,0.0044
2.847e-03,0.6,0.56,-0.002,-0.0068
2.849e-03,0.6,0.62,-0.0012,0.0028
2.851e-03,0.6,0.56,0.000399999,-0.0068
2.853e-03,0.6,0.62,-0.0028,0.0036
2.855e-03,0.6,0.56,-0.000400001,-0.006
2.857e-03,0.6,0.62,-0.000400001,0.0044
2.859e-03,0.6,0.56,-0.000400001,-0.006
2.861e-03,0.6,0.62,-0.002,0.0036
2.863e-03,0.6,0.56,-0.002,-0.0076
2.865e-03,0.6,0.62,0.000399999,0.0036
2.867e-03,0.6,0.56,-0.002,-0.006
2.868e-03,0.58,0.62,-0.002,0.0036
2.870e-03,0.6,0.56,-0.0028,-0.006
2.872e-03,0.6,0.62,-0.0028,0.0044
2.874e-03,0.6,0.56,-0.0012,-0.0068
2.876e-03,0.58,0.62,-0.0028,0.0036
2.878e-03,0.58,0.56,0.000399999,-0.0076
2.880e-03,0.58,0.62,-0.000400001,0.0036
2.882e-03,0.58,0.56,-0.002,-0.0068
2.884e-03,0.58,0.62,-0.0028,0.0036
2.886e-03,0.58,0.56,-0.0044,-0.006
2.888e-03,0.6,0.6,-0.000400001,0.0028
2.890e-03,0.58,0.54,-0.0012,-0.0076
2.892e-03,0.58,0.6,-0.002,0.0044
2.893e-03,0.58,0.54,-0.006,-0.0068
2.895e-03,0.6,0.6,-0.0012,0.0028
2.897e-03,0.58,0.56,-0.000400001,-0.006
2.899e-03,0.58,0.6,-0.0044,0.0036
2.901e-03,0.58,0.56,-0.0012,-0.0076
2.903e-03,0.58,0.6,-0.0052,0.0028
2.905e-03,0.58,0.56,-0.0036,-0.0068
2.907e-03,0.58,0.6,0.000399999,0.0036
2.909e-03,0.58,0.56,-0.0028,-0.006
2.911e-03,0.58,0.6,0.0012,0.0036
2.913e-03,0.58,0.54,0.000399999,-0.006
2.915e-03,0.58,0.6,-0.000400001,0.0036
2.916e-03,0.58,0.54,-0.0012,-0.0068
2.918e-03,0.58,0.6,0.0012,0.0028
2.920e-03,0.6,0.56,-0.0012,-0.006
2.922e-03,0.58,0.6,-0.0044,0.0036
2.924e-03,0.56,0.54,0.000399999,-0.0068
2.926e-03,0.56,0.6,-0.0012,0.0036
2.928e-03,0.56,0.54,-0.0044,-0.006
2.930e-03,0.58,0.6,-0.0012,0.0036
2.932e-03,0.58,0.54,0.0012,-0.006
2.934e-03,0.56,0.6,-0.0028,0.0028
2.936e-03,0.58,0.54,-0.0044,-0.0068
2.938e-03,0.58,0.6,-0.0036,0.0036
2.940e-03,0.56,0.54,-0.0012,-0.0068
2.941e-03,0.58,0.6,-0.000400001,0.0028
2.943e-03,0.58,0.54,-0.002,-0.006
2.945e-03,0.58,0.6,-0.0012,0.0052
2.947e-03,0.56,0.54,-0.002,-0.0076
2.949e-03,0.56,0.6,-0.0012,0.0028
2.951e-03,0.58,0.54,-0.0052,-0.006
2.953e-03,0.56,0.6,-0.000400001,0.0036
2.955e-03,0.56,0.54,-0.000400001,-0.0068
2.957e-03,0.56,0.6,-0.0012,0.0036
2.959e-03,0.58,0.52,-0.000400001,-0.0068
2.961e-03,0.56,0.6,-0.0028,0.0044
2.963e-03,0.58,0.54,-0.002,-0.006
2.964e-03,0.56,0.58,-0.0012,0.0044
2.966e-03,0.56,0.54,-0.0044,-0.0068
2.968e-03,0.56,0.58,-0.0036,0.0036
2.970e-03,0.56,0.52,-0.0012,-0.006
2.972e-03,0.56,0.58,0.000399999,0.0036
2.974e-03,0.56,0.52,-0.0044,-0.0068
2.976e-03,0.56,0.58,-0.0028,0.0028
2.978e-03,0.58,0.52,-0.002,-0.006
2.980e-03,0.56,0.6,-0.0036,0.0036
2.982e-03,0.56,0.54,-0.0028,-0.0076
2.984e-03,0.56,0.58,-0.000400001,0.0028
2.986e-03,0.56,0.52,-0.0028,-0.0068
2.988e-03,0.56,0.58,-0.002,0.0044
2.989e-03,0.56,0.52,-0.0028,-0.006
2.991e-03,0.56,0.58,-0.0028,0.0028
2.993e-03,0.56,0.52,-0.002,-0.0068
2.995e-03,0.56,0.58,-0.0044,0.0036
2.997e-03,0.54,0.52,-0.0028,-0.0068
2.999e-03,0.54,0.58,-0.0012,0.0036
3.001e-03,0.56,0.52,-0.0012,-0.0068
3.003e-03,0.56,0.58,-0.0012,0.0036
3.005e-03,0.56,0.52,-0.0036,-0.0068
3.007e-03,0.54,0.58,-0.0012,0.0036
3.009e-03,0.56,0.52,-0.002,-0.0076
3.011e-03,0.54,0.58,-0.0012,0.0036
3.012e-03,0.56,0.52,-0.0012,-0.0076
3.014e-03,0.54,0.58,0.000399999,0.0036
3.016e-03,0.56,0.52,-0.0012,-0.0076
3.018e-03,0.54,0.58,-0.0036,0.0036
3.020e-03,0.56,0.52,-0.002,-0.0068
3.022e-03,0.54,0.58,-0.000400001,0.0036
3.024e-03,0.54,0.52,-0.002,-0.0076
3.026e-03,0.54,0.58,-0.0012,0.0052
3.028e-03,0.54,0.52,0.000399999,-0.0068
3.030e-03,0.54,0.56,-0.000400001,0.0028
3.032e-03,0.56,0.52,-0.0044,-0.006
3.034e-03,0.54,0.58,-0.0036,0.0036
3.036e-03,0.54,0.52,0.000399999,-0.0068
3.037e-03,0.54,0.58,-0.0036,0.0028
3.039e-03,0.54,0.5,-0.000400001,-0.006
3.041e-03,0.54,0.56,-0.002,0.0044
3.043e-03,0.54,0.5,-0.0012,-0.006
3.045e-03,0.54,0.56,-0.0028,0.0052
3.047e-03,0.54,0.5,-0.0036,-0.0068
3.049e-03,0.56,0.56,-0.002,0.0044
3.051e-03,0.54,0.52,-0.0028,-0.006
3.053e-03,0.54,0.56,0.000399999,0.0036
3.055e-03,0.56,0.5,-0.002,-0.006
3.057e-03,0.56,0.56,-0.0036,0.0036
3.059e-03,0.54,0.52,-0.002,-0.0084
3.060e-03,0.54,0.56,-0.0012,0.0036
3.062e-03,0.54,0.5,-0.0028,-0.0068
3.064e-03,0.54,0.56,-0.0012,0.0036
3.066e-03,0.54,0.5,-0.0028,-0.0068
3.068e-03,0.54,0.56,-0.002,0.0044
3.070e-03,0.54,0.5,-0.0028,-0.0068
3.072e-03,0.52,0.56,-0.0012,0.0028
3.074e-03,0.54,0.5,-0.002,-0.0068
3.076e-03,0.52,0.56,-0.002,0.0036
3.078e-03,0.54,0.5,0.002,-0.0068
3.080e-03,0.54,0.56,-0.002,0.0036
3.082e-03,0.52,0.5,-0.002,-0.0068
3.084e-03,0.54,0.56,-0.002,0.0036
3.085e-03,0.54,0.5,-0.000400001,-0.006
3.087e-03,0.54,0.56,-0.0012,0.0044
3.089e-03,0.52,0.5,-0.000400001,-0.006
3.091e-03,0.52,0.56,0.0012,0.0044
3.093e-03,0.54,0.5,-0.000400001,-0.0068
3.095e-03,0.52,0.56,-0.0012,0.0036
3.097e-03,0.52,0.5,-0.0028,-0.006
3.099e-03,0.52,0.56,-0.002,0.0036
3.101e-03,0.54,0.5,-0.0028,-0.0068
3.103e-03,0.52,0.56,-0.0044,0.0036
3.105e-03,0.52,0.5,0.000399999,-0.0076
3.107e-03,0.52,0.56,-0.002,0.0036
3.108e-03,0.52,0.5,-0.002,-0.0068
3.110e-03,0.52,0.56,0.0012,0.0036
3.112e-03,0.52,0.48,-0.0036,-0.0068
3.114e-03,0.52,0.54,0.0012,0.0036
3.116e-03,0.52,0.5,-0.0012,-0.0076
3.118e-03,0.52,0.54,-0.0012,0.0028
3.120e-03,0.52,0.5,-0.002,-0.006
3.122e-03,0.52,0.54,-0.002,0.0028
3.124e-03,0.52,0.48,0.0012,-0.006
3.126e-03,0.52,0.54,0.000399999,0.0036
3.128e-03,0.52,0.48,-0.0028,-0.0084
3.130e-03,0.52,0.54,0.0012,0.0044
3.132e-03,0.52,0.48,-0.0012,-0.0068
3.133e-03,0.52,0.54,-0.0028,0.0052
3.135e-03,0.52,0.48,-0.0012,-0.0068
3.137e-03,0.5,0.54,-0.0012,0.0044
3.139e-03,0.52,0.48,-0.002,-0.0068
3.141e-03,0.52,0.54,-0.002,0.0052
3.143e-03,0.52,0.48,-0.0012,-0.0068
3.145e-03,0.52,0.54,-0.0036,0.0044
3.147e-03,0.52,0.48,-0.002,-0.0076
3.149e-03,0.52,0.54,-0.002,0.0044
3.151e-03,0.52,0.48,-0.000400001,-0.0076
3.153e-03,0.52,0.54,0.0012,0.0036
3.155e-03,0.5,0.48,-0.0036,-0.0068
3.156e-03,0.52,0.54,-0.0012,0.0044
3.158e-03,0.5,0.48,-0.0012,-0.0076
3.160e-03,0.5,0.54,-0.0012,0.0044
3.162e-03,0.52,0.48,-0.002,-0.006
3.164e-03,0.52,0.54,-0.0044,0.0036
3.166e-03,0.52,0.48,-0.0028,-0.006
3.168e-03,0.52,0.54,-0.0012,0.0044
3.170e-03,0.5,0.48,-0.0044,-0.0068
3.172e-03,0.5,0.54,-0.0052,0.0028
3.174e-03,0.5,0.48,0.000399999,-0.0076
3.176e-03,0.5,0.52,-0.002,0.0036
3.178e-03,0.5,0.48,-0.0012,-0.0068
3.180e-03,0.5,0.52,-0.0044,0.0044
3.181e-03,0.5,0.48,-0.000400001,-0.0068
3.183e-03,0.52,0.54,-0.0028,0.0044
3.185e-03,0.52,0.48,-0.0036,-0.0068
3.187e-03,0.5,0.54,-0.0028,0.0044
3.189e-03,0.5,0.46,-0.0028,-0.0068
3.191e-03,0.5,0.52,-0.0028,0.0036
3.193e-03,0.5,0.46,-0.0012,-0.0068
3.195e-03,0.5,0.52,-0.0028,0.0028
3.197e-03,0.5,0.46,-0.002,-0.006
3.199e-03,0.52,0.52,-0.002,0.0044
3.201e-03,0.5,0.46,-0.0012,-0.006
3.203e-03,0.5,0.52,-0.002,0.0044
3.204e-03,0.5,0.46,-0.002,-0.0068
3.206e-03,0.5,0.54,-0.0028,0.0028
3.208e-03,0.5,0.46,-0.0012,-0.0076
3.210e-03,0.5,0.52,0.0012,0.0036
3.212e-03,0.5,0.46,0.000399999,-0.0076
3.214e-03,0.48,0.52,0.0012,0.0036
3.216e-03,0.5,0.46,-0.000400001,-0.0068
3.218e-03,0.5,0.52,-0.0028,0.0044
3.220e-03,0.5,0.46,-0.0036,-0.0068
3.222e-03,0.48,0.52,-0.002,0.0028
3.224e-03,0.5,0.46,-0.0012,-0.006
3.226e-03,0.5,0.52,-0.0012,0.0036
3.228e-03,0.48,0.46,-0.0012,-0.0076
3.229e-03,0.5,0.52,-0.0012,0.0036
3.231e-03,0.48,0.46,-0.0012,-0.0076
3.233e-03,0.48,0.52,-0.0012,0.0052
3.235e-03,0.5,0.46,0.000399999,-0.0068
3.237e-03,0.5,0.52,-0.0012,0.0036
3.239e-03,0.48,0.46,-0.0028,-0.0084
3.241e-03,0.5,0.52,-0.0052,0.0044
3.243e-03,0.48,0.46,-0.006,-0.0084
3.245e-03,0.48,0.52,0.0012,0.0044
3.247e-03,0.48,0.44,-0.000400001,-0.006
3.249e-03,0.48,0.5,-0.0036,0.0052
3.251e-03,0.48,0.46,-0.002,-0.006
3.252e-03,0.48,0.52,-0.0036,0.0036
3.254e-03,0.48,0.46,-0.0036,-0.006
3.256e-03,0.48,0.5,-0.0028,0.0036
3.258e-03,0.48,0.44,0.0012,-0.0068
3.260e-03,0.48,0.5,-0.000400001,0.0036
3.262e-03,0.48,0.44,-0.0012,-0.0068
3.264e-03,0.48,0.5,-0.0012,0.006
3.266e-03,0.48,0.44,-0.0052,-0.006
3.268e-03,0.48,0.5,0.000399999,0.0044
3.270e-03,0.48,0.44,-0.002,-0.0068
3.272e-03,0.48,0.5,-0.002,0.006
3.274e-03,0.48,0.44,-0.0052,-0.0076
3.276e-03,0.48,0.5,-0.002,0.0044
3.277e-03,0.48,0.44,-0.0012,-0.006
3.279e-03,0.46,0.5,-0.0028,0.0044
3.281e-03,0.46,0.44,-0.002,-0.0084
3.283e-03,0.46,0.5,-0.000400001,0.0036
3.285e-03,0.46,0.44,-0.002,-0.006
3.287e-03,0.48,0.5,-0.002,0.0036
3.289e-03,0.46,0.44,-0.0012,-0.0076
3.291e-03,0.46,0.5,0.000399999,0.0044
3.293e-03,0.46,0.44,0.000399999,-0.006
3.295e-03,0.48,0.5,-0.0036,0.0044
3.297e-03,0.46,0.44,-0.0012,-0.0068
3.299e-03,0.48,0.5,-0.002,0.0044
3.300e-03,0.46,0.44,0.002,-0.0068
3.302e-03,0.46,0.5,0.000399999,0.0036
3.304e-03,0.46,0.44,-0.0012,-0.006
3.306e-03,0.46,0.48,-0.0044,0.0036
3.308e-03,0.46,0.44,0.000399999,-0.006
3.310e-03,0.46,0.48,-0.000400001,0.0044
3.312e-03,0.46,0.44,-0.000400001,-0.0068
3.314e-03,0.48,0.5,-0.002,0.0036
3.316e-03,0.46,0.44,-0.002,-0.006
3.318e-03,0.46,0.48,-0.000400001,0.0052
3.320e-03,0.48,0.44,-0.0012,-0.006
3.322e-03,0.46,0.5,0.000399999,0.0044
3.324e-03,0.48,0.44,-0.0036,-0.006
3.325e-03,0.46,0.48,0.002,0.0052
3.327e-03,0.48,0.44,-0.000400001,-0.0068
3.329e-03,0.46,0.48,-0.0012,0.0052
3.331e-03,0.46,0.44,-0.002,-0.006
3.333e-03,0.48,0.5,0.000399999,0.0036
3.335e-03,0.46,0.44,-0.000400001,-0.0076
3.337e-03,0.46,0.48,0.000399999,0.0036
3.339e-03,0.46,0.42,-0.0012,-0.006
3.341e-03,0.46,0.48,-0.000400001,0.0044
3.343e-03,0.46,0.42,0.002,-0.0052
3.345e-03,0.46,0.48,0.000399999,0.0052
3.347e-03,0.44,0.42,-0.002,-0.0052
3.348e-03,0.44,0.48,-0.0012,0.0044
3.350e-03,0.46,0.42,-0.0012,-0.006
3.352e-03,0.46,0.48,-0.000400001,0.0052
3.354e-03,0.46,0.42,-0.0028,-0.0052
3.356e-03,0.46,0.48,-0.000400001,0.0052
3.358e-03,0.46,0.42,-0.002,-0.0052
3.360e-03,0.46,0.48,0.000399999,0.0052
3.362e-03,0.46,0.42,-0.0012,-0.0052
3.364e-03,0.44,0.48,-0.0012,0.0052
3.366e-03,0.44,0.42,0.000399999,-0.0068
3.368e-03,0.46,0.48,-0.002,0.0052
3.370e-03,0.44,0.42,-0.0012,-0.0052
3.372e-03,0.44,0.48,0.000399999,0.006
3.373e-03,0.44,0.42,0.002,-0.0052
3.375e-03,0.46,0.48,-0.0028,0.0052
3.377e-03,0.44,0.42,-0.002,-0.0052
3.379e-03,0.46,0.46,0.000399999,0.0052
3.381e-03,0.46,0.42,-0.000400001,-0.0052
3.383e-03,0.46,0.48,-0.000400001,0.0052
3.385e-03,0.42,0.42,-0.000400001,-0.006
3.387e-03,0.44,0.46,0.0028,0.0052
3.389e-03,0.44,0.42,-0.000400001,-0.0068
3.391e-03,0.44,0.46,-0.0012,0.0052
3.393e-03,0.44,0.42,-0.0012,-0.0068
3.395e-03,0.44,0.48,0.0052,0.006
3.396e-03,0.44,0.42,-0.000400001,-0.0052
3.398e-03,0.44,0.46,-0.0028,0.0052
3.400e-03,0.44,0.42,-0.000400001,-0.0052
3.402e-03,0.44,0.46,-0.0012,0.0052
3.404e-03,0.42,0.42,-0.002,-0.0052
3.406e-03,0.42,0.46,0.002,0.0052
3.408e-03,0.44,0.4,-0.0028,-0.0052
3.410e-03,0.44,0.46,-0.000400001,0.006
3.412e-03,0.46,0.42,0.000399999,-0.0052
3.414e-03,0.44,0.46,0.000399999,0.0052
3.416e-03,0.44,0.4,0.0012,-0.0052
3.418e-03,0.44,0.46,-0.002,0.006
3.420e-03,0.44,0.4,0.000399999,-0.006
3.421e-03,0.42,0.46,-0.000400001,0.0052
3.423e-03,0.44,0.4,-0.0012,-0.0052
3.425e-03,0.44,0.46,0.000399999,0.006
3.427e-03,0.42,0.4,0.000399999,-0.006
3.429e-03,0.44,0.46,0.002,0.006
3.431e-03,0.42,0.4,-0.0012,-0.0052
3.433e-03,0.42,0.46,0.000399999,0.006
3.435e-03,0.44,0.4,0.0012,-0.0044
3.437e-03,0.42,0.46,0.002,0.0068
3.439e-03,0.42,0.4,-0.0012,-0.0044
3.441e-03,0.42,0.46,0.000399999,0.006
3.443e-03,0.42,0.4,0.0028,-0.0028
3.445e-03,0.44,0.46,0.0036,0.0068
3.446e-03,0.42,0.4,0.000399999,-0.0028
3.448e-03,0.42,0.46,0.0028,0.0084
3.450e-03,0.42,0.4,0.0036,-0.0028
3.452e-03,0.42,0.46,0.0068,0.0092
3.454e-03,0.42,0.4,0.0052,-0.002
3.456e-03,0.42,0.44,0.0012,0.0084
3.458e-03,0.42,0.4,0.0036,-0.0012
3.460e-03,0.42,0.44,0.0044,0.0108
3.462e-03,0.42,0.4,0.0068,0.000399999
3.464e-03,0.42,0.44,0.0044,0.01
3.466e-03,0.44,0.4,0.0036,0.000399999
3.468e-03,0.44,0.44,0.0052,0.0116
3.469e-03,0.42,0.4,0.006,0.0012
3.471e-03,0.44,0.44,0.0052,0.0116
3.473e-03,0.42,0.4,0.006,0.0012
3.475e-03,0.42,0.44,0.0044,0.0108
3.477e-03,0.42,0.4,0.0068,0.0012
3.479e-03,0.42,0.44,0.0076,0.0108
3.481e-03,0.42,0.4,0.006,-0.000400001
3.483e-03,0.42,0.44,0.0068,0.01
3.485e-03,0.42,0.4,0.0076,-0.000400001
3.487e-03,0.42,0.44,0.0068,0.0108
3.489e-03,0.42,0.38,0.0036,0.000399999
3.491e-03,0.4,0.44,0.0044,0.0108
3.493e-03,0.42,0.38,0.0076,0.000399999
3.494e-03,0.4,0.44,0.0076,0.0116
3.496e-03,0.42,0.38,0.0036,0.0012
3.498e-03,0.42,0.44,0.006,0.0116
3.500e-03,0.42,0.38,0.0068,0.0012
3.502e-03,0.4,0.44,0.0076,0.0124
3.504e-03,0.42,0.38,0.0084,0.002
3.506e-03,0.42,0.44,0.006,0.0124
3.508e-03,0.42,0.38,0.0084,0.002
3.510e-03,0.4,0.44,0.0076,0.014
3.512e-03,0.4,0.38,0.01,0.0044
3.514e-03,0.42,0.44,0.0108,0.014
3.516e-03,0.4,0.38,0.0092,0.0036
3.517e-03,0.4,0.44,0.01,0.0156
3.519e-03,0.4,0.38,0.0116,0.006
3.521e-03,0.4,0.42,0.0116,0.0156
3.523e-03,0.4,0.38,0.0132,0.0076
3.525e-03,0.42,0.44,0.0148,0.0188
3.527e-03,0.42,0.38,0.0132,0.0076
3.529e-03,0.4,0.44,0.0156,0.0196
3.531e-03,0.38,0.38,0.0156,0.01
3.533e-03,0.4,0.42,0.018,0.0204
3.535e-03,0.4,0.38,0.0164,0.0116
3.537e-03,0.4,0.42,0.018,0.0236
3.539e-03,0.4,0.38,0.018,0.0132
3.541e-03,0.4,0.42,0.0212,0.0236
3.542e-03,0.4,0.38,0.0204,0.014
3.544e-03,0.4,0.42,0.0244,0.0268
3.546e-03,0.4,0.38,0.022,0.0172
3.548e-03,0.4,0.42,0.0244,0.0284
3.550e-03,0.4,0.38,0.0252,0.0196
3.552e-03,0.4,0.42,0.0284,0.0308
3.554e-03,0.4,0.38,0.0292,0.022
3.556e-03,0.4,0.42,0.0276,0.0348
3.558e-03,0.38,0.36,0.0316,0.0252
3.560e-03,0.4,0.42,0.034,0.0372
3.562e-03,0.38,0.36,0.0364,0.03
3.564e-03,0.4,0.42,0.0388,0.0436
3.565e-03,0.4,0.36,0.0404,0.0348
3.567e-03,0.38,0.42,0.042,0.0476
3.569e-03,0.38,0.36,0.0436,0.0388
3.571e-03,0.38,0.42,0.0484,0.0508
3.573e-03,0.38,0.36,0.0492,0.042
3.575e-03,0.38,0.42,0.0524,0.0572
3.577e-03,0.4,0.36,0.054,0.0492
3.579e-03,0.38,0.42,0.0588,0.0628
3.581e-03,0.38,0.36,0.0596,0.054
3.583e-03,0.4,0.42,0.066,0.0684
3.585e-03,0.38,0.36,0.0676,0.0604
3.587e-03,0.4,0.42,0.0684,0.0732
3.589e-03,0.38,0.36,0.07,0.0652
3.590e-03,0.4,0.4,0.0732,0.0796
3.592e-03,0.4,0.36,0.078,0.07
3.594e-03,0.38,0.42,0.0796,0.0844
3.596e-03,0.38,0.36,0.0852,0.0748
3.598e-03,0.38,0.4,0.0796,0.0868
3.600e-03,0.38,0.36,0.0836,0.0748
3.602e-03,0.38,0.4,0.0836,0.0876
3.604e-03,0.38,0.36,0.0804,0.0764
3.606e-03,0.4,0.4,0.0804,0.0868
3.608e-03,0.38,0.36,0.082,0.0748
3.610e-03,0.38,0.4,0.0764,0.086
3.612e-03,0.38,0.36,0.0748,0.0716
3.613e-03,0.4,0.4,0.0724,0.0836
3.615e-03,0.36,0.34,0.0716,0.0644
3.617e-03,0.38,0.4,0.0668,0.0788
3.619e-03,0.38,0.36,0.066,0.0596
3.621e-03,0.36,0.4,0.0596,0.0724
3.623e-03,0.38,0.36,0.058,0.0532
3.625e-03,0.36,0.4,0.0532,0.0676
3.627e-03,0.36,0.34,0.0508,0.0468
3.629e-03,0.38,0.4,0.0516,0.0612
3.631e-03,0.38,0.34,0.046,0.0412
3.633e-03,0.36,0.4,0.042,0.0532
3.635e-03,0.38,0.34,0.042,0.0348
3.637e-03,0.36,0.4,0.0396,0.0492
3.638e-03,0.38,0.34,0.0364,0.0308
3.640e-03,0.38,0.4,0.0364,0.0428
3.642e-03,0.36,0.34,0.0292,0.0268
3.644e-03,0.38,0.4,0.03,0.0388
3.646e-03,0.38,0.34,0.0276,0.022
3.648e-03,0.36,0.4,0.0244,0.0348
3.650e-03,0.36,0.34,0.0228,0.0196
3.652e-03,0.38,0.4,0.0212,0.0308
3.654e-03,0.36,0.34,0.022,0.0164
3.656e-03,0.36,0.4,0.022,0.0268
3.658e-03,0.36,0.34,0.0148,0.0124
3.660e-03,0.36,0.4,0.014,0.0244
3.661e-03,0.36,0.34,0.014,0.0108
3.663e-03,0.36,0.38,0.0156,0.022
3.665e-03,0.36,0.34,0.0164,0.0076
3.667e-03,0.36,0.4,0.014,0.0204
3.669e-03,0.36,0.34,0.0124,0.0068
3.671e-03,0.36,0.4,0.0124,0.018
3.673e-03,0.36,0.34,0.0132,0.0044
3.675e-03,0.36,0.38,0.01,0.0156
3.677e-03,0.36,0.34,0.0068,0.0044
3.679e-03,0.36,0.38,0.0092,0.014
3.681e-03,0.36,0.34,0.0076,0.0028
3.683e-03,0.38,0.38,0.0076,0.0116
3.685e-03,0.36,0.34,0.0092,-0.000400001
3.686e-03,0.36,0.38,0.006,0.0132
3.688e-03,0.38,0.34,0.006,0.0012
3.690e-03,0.38,0.38,0.0084,0.0116
3.692e-03,0.36,0.34,0.0036,-0.000400001
3.694e-03,0.34,0.38,0.0052,0.0108
3.696e-03,0.34,0.32,0.006,-0.000400001
3.698e-03,0.36,0.38,0.0076,0.01
3.700e-03,0.36,0.32,0.0028,-0.0028
3.702e-03,0.36,0.38,0.0052,0.0084
3.704e-03,0.36,0.32,0.0036,-0.0028
3.706e-03,0.34,0.38,-0.000400001,0.0076
3.708e-03,0.38,0.32,0.0028,-0.002
3.709e-03,0.36,0.38,0.0028,0.0068
3.711e-03,0.36,0.34,0.000399999,-0.0036
3.713e-03,0.36,0.38,0.0028,0.0076
3.715e-03,0.36,0.32,0.0012,-0.0036
3.717e-03,0.36,0.38,0.002,0.0076
3.719e-03,0.36,0.32,0.002,-0.0036
3.721e-03,0.34,0.38,0.0028,0.0068
3.723e-03,0.34,0.32,0.0012,-0.0044
3.725e-03,0.34,0.38,0.0028,0.0068
3.727e-03,0.34,0.32,-0.000400001,-0.0036
3.729e-03,0.36,0.38,0.002,0.0052
3.731e-03,0.34,0.32,0.0028,-0.0044
3.733e-03,0.34,0.38,-0.000400001,0.006
3.734e-03,0.34,0.32,0.0028,-0.0052
3.736e-03,0.34,0.36,-0.0012,0.006
3.738e-03,0.34,0.32,-0.000400001,-0.0044
3.740e-03,0.34,0.38,0.000399999,0.006
3.742e-03,0.34,0.32,-0.000400001,-0.0036
3.744e-03,0.34,0.38,-0.0012,0.0068
3.746e-03,0.34,0.32,-0.0012,-0.0044
3.748e-03,0.34,0.38,0.0028,0.0068
3.750e-03,0.34,0.32,0.000399999,-0.0052
3.752e-03,0.34,0.36,0.000399999,0.0044
3.754e-03,0.34,0.32,-0.000400001,-0.0052
3.756e-03,0.34,0.38,-0.0028,0.0052
3.757e-03,0.34,0.32,0.000399999,-0.006
3.759e-03,0.34,0.36,-0.002,0.0052
3.761e-03,0.34,0.32,-0.000400001,-0.0052
3.763e-03,0.34,0.36,-0.002,0.006
3.765e-03,0.34,0.32,0.000399999,-0.0052
3.767e-03,0.34,0.36,0.0012,0.0052
3.769e-03,0.34,0.3,-0.002,-0.0052
3.771e-03,0.34,0.36,-0.002,0.0052
3.773e-03,0.34,0.3,-0.0028,-0.0068
3.775e-03,0.34,0.36,-0.000400001,0.006
3.777e-03,0.32,0.32,-0.0012,-0.0076
3.779e-03,0.34,0.36,-0.002,0.0044
3.781e-03,0.34,0.3,-0.000400001,-0.006
3.782e-03,0.34,0.36,-0.002,0.0044
3.784e-03,0.34,0.32,-0.000400001,-0.006
3.786e-03,0.32,0.36,-0.0028,0.0044
3.788e-03,0.32,0.3,-0.000400001,-0.006
3.790e-03,0.34,0.36,-0.0012,0.0028
3.792e-03,0.32,0.3,-0.0028,-0.0052
3.794e-03,0.34,0.36,-0.002,0.0052
3.796e-03,0.34,0.3,-0.002,-0.006
3.798e-03,0.32,0.36,0.0012,0.0044
3.800e-03,0.32,0.3,0.002,-0.006
3.802e-03,0.32,0.34,-0.0012,0.0044
3.804e-03,0.32,0.3,-0.0028,-0.0068
3.805e-03,0.32,0.36,0.000399999,0.0036
3.807e-03,0.34,0.3,-0.000400001,-0.0076
3.809e-03,0.32,0.36,-0.0012,0.0044
3.811e-03,0.32,0.3,0.000399999,-0.0052
3.813e-03,0.32,0.34,-0.0044,0.0044
3.815e-03,0.32,0.3,0.000399999,-0.0076
3.817e-03,0.3,0.36,-0.002,0.0044
3.819e-03,0.32,0.3,-0.0012,-0.006
3.821e-03,0.32,0.34,-0.002,0.0044
3.823e-03,0.32,0.3,-0.0012,-0.0068
3.825e-03,0.32,0.36,-0.002,0.0036
3.827e-03,0.3,0.3,-0.000400001,-0.0068
3.829e-03,0.32,0.34,-0.000400001,0.0036
3.830e-03,0.32,0.28,0.000399999,-0.0068
3.832e-03,0.32,0.34,-0.002,0.0044
3.834e-03,0.32,0.28,-0.0028,-0.0068
3.836e-03,0.32,0.34,-0.0036,0.0036
3.838e-03,0.32,0.3,-0.0012,-0.0068
3.840e-03,0.32,0.34,-0.0028,0.0052
3.842e-03,0.32,0.3,-0.0036,-0.0076
3.844e-03,0.3,0.34,-0.0036,0.0036
3.846e-03,0.3,0.28,0.000399999,-0.0076
3.848e-03,0.32,0.34,-0.000400001,0.0036
3.850e-03,0.3,0.28,-0.0044,-0.0068
3.852e-03,0.32,0.34,-0.000400001,0.0028
3.853e-03,0.32,0.3,-0.002,-0.0068
3.855e-03,0.32,0.34,-0.000400001,0.0036
3.857e-03,0.32,0.3,0.0028,-0.0068
3.859e-03,0.32,0.34,-0.0028,0.0044
3.861e-03,0.3,0.28,-0.000400001,-0.0076
3.863e-03,0.32,0.34,0.000399999,0.0044
3.865e-03,0.32,0.28,-0.002,-0.006
3.867e-03,0.3,0.34,-0.0012,0.0028
3.869e-03,0.3,0.28,-0.0044,-0.0068
3.871e-03,0.3,0.34,-0.0012,0.0036
3.873e-03,0.3,0.28,0.0012,-0.0068
3.875e-03,0.3,0.34,-0.0052,0.0036
3.877e-03,0.32,0.28,-0.0044,-0.0068
3.878e-03,0.3,0.34,-0.0052,0.0044
3.880e-03,0.3,0.28,-0.000400001,-0.0068
3.882e-03,0.3,0.32,-0.002,0.0036
3.884e-03,0.3,0.28,-0.002,-0.0068
3.886e-03,0.3,0.34,-0.0036,0.0044
3.888e-03,0.32,0.28,0.002,-0.0068
3.890e-03,0.3,0.32,-0.0012,0.0028
3.892e-03,0.3,0.28,-0.0028,-0.0068
3.894e-03,0.32,0.32,-0.0036,0.0028
3.896e-03,0.3,0.28,-0.0012,-0.0068
3.898e-03,0.3,0.34,-0.0028,0.0028
3.900e-03,0.32,0.26,-0.0028,-0.006
3.901e-03,0.32,0.32,-0.0012,0.0028
3.903e-03,0.3,0.28,-0.0052,-0.0076
3.905e-03,0.3,0.32,-0.002,0.0036
3.907e-03,0.3,0.28,-0.0012,-0.0076
3.909e-03,0.3,0.32,-0.002,0.0036
3.911e-03,0.3,0.28,-0.0012,-0.0068
3.913e-03,0.3,0.32,-0.0044,0.0028
3.915e-03,0.3,0.26,-0.0012,-0.006
3.917e-03,0.3,0.32,-0.0036,0.0028
3.919e-03,0.3,0.28,-0.0044,-0.0068
3.921e-03,0.28,0.32,-0.0044,0.0044
3.923e-03,0.3,0.28,-0.0012,-0.0076
3.925e-03,0.3,0.32,-0.0028,0.0028
3.926e-03,0.3,0.26,-0.0044,-0.0068
3.928e-03,0.3,0.32,-0.0028,0.002
3.930e-03,0.3,0.26,-0.0012,-0.0084
3.932e-03,0.3,0.32,-0.0028,0.0028
3.934e-03,0.3,0.26,-0.0012,-0.0068
3.936e-03,0.28,0.32,-0.0036,0.002
3.938e-03,0.28,0.26,-0.0052,-0.0084
3.940e-03,0.3,0.32,-0.000400001,0.0028
3.942e-03,0.28,0.26,-0.002,-0.0076
3.944e-03,0.28,0.32,-0.0028,0.002
3.946e-03,0.3,0.26,-0.0028,-0.0068
3.948e-03,0.28,0.32,-0.0044,0.0028
3.949e-03,0.3,0.26,-0.000400001,-0.0076
3.951e-03,0.28,0.32,-0.000400001,0.0028
3.953e-03,0.28,0.26,-0.002,-0.0068
3.955e-03,0.28,0.32,-0.0044,0.0028
3.957e-03,0.28,0.26,-0.000400001,-0.0076
3.959e-03,0.3,0.3,-0.000400001,0.002
3.961e-03,0.28,0.26,-0.0036,-0.0084
3.963e-03,0.28,0.32,-0.0044,0.0036
3.965e-03,0.28,0.26,-0.0028,-0.0084
3.967e-03,0.28,0.3,-0.0028,0.0028
3.969e-03,0.28,0.26,-0.0012,-0.0076
3.971e-03,0.28,0.3,-0.0036,0.0028
3.973e-03,0.28,0.24,-0.0012,-0.006
3.974e-03,0.28,0.3,-0.002,0.0028
3.976e-03,0.28,0.26,-0.002,-0.0068
3.978e-03,0.28,0.3,-0.0028,0.0036
3.980e-03,0.26,0.24,-0.0012,-0.0076
3.982e-03,0.28,0.3,0.000399999,0.002
3.984e-03,0.28,0.26,-0.0044,-0.0084
3.986e-03,0.28,0.3,-0.0012,0.002
3.988e-03,0.28,0.24,-0.002,-0.006
3.990e-03,0.26,0.3,-0.0028,0.0036
3.992e-03,0.28,0.24,-0.0036,-0.0068
3.994e-03,0.28,0.3,-0.000400001,0.002
3.996e-03,0.26,0.24,-0.0028,-0.0076
3.997e-03,0.26,0.3,-0.000400001,0.0028
3.999e-03,0.26,0.24,-0.0044,-0.0076
4.001e-03,0.26,0.28,-0.000400001,0.002
4.003e-03,0.28,0.24,-0.002,-0.0076
4.005e-03,0.28,0.3,0.000399999,0.0036
4.007e-03,0.26,0.24,-0.0036,-0.0092
4.009e-03,0.28,0.3,-0.0028,0.0028
4.011e-03,0.26,0.24,-0.0036,-0.0084
4.013e-03,0.26,0.3,-0.0052,0.0036
4.015e-03,0.24,0.22,-0.0012,-0.0076
4.017e-03,0.26,0.28,-0.002,0.002
4.019e-03,0.28,0.24,-0.0044,-0.0076
4.021e-03,0.26,0.3,-0.006,0.002
4.022e-03,0.26,0.24,-0.002,-0.0068
4.024e-03,0.26,0.3,-0.0012,0.0036
4.026e-03,0.26,0.24,-0.0012,-0.0084
4.028e-03,0.26,0.28,-0.0028,0.0028
4.030e-03,0.26,0.24,-0.000400001,-0.0076
4.032e-03,0.26,0.3,-0.0028,0.002
4.034e-03,0.26,0.24,-0.0036,-0.0084
4.036e-03,0.24,0.3,-0.0012,0.0036
4.038e-03,0.26,0.24,-0.0028,-0.0084
4.040e-03,0.26,0.3,-0.0052,0.0028
4.042e-03,0.24,0.22,-0.000400001,-0.0076
4.044e-03,0.26,0.3,-0.0044,0.0028
4.045e-03,0.26,0.24,-0.000400001,-0.0076
4.047e-03,0.26,0.28,-0.002,0.0044
4.049e-03,0.26,0.24,-0.002,-0.0076
4.051e-03,0.26,0.28,-0.002,0.002
4.053e-03,0.26,0.22,-0.0028,-0.0068
4.055e-03,0.26,0.28,-0.0012,0.0028
4.057e-03,0.26,0.22,-0.0036,-0.0084
4.059e-03,0.26,0.28,-0.006,0.0028
4.061e-03,0.26,0.22,-0.0036,-0.0084
4.063e-03,0.26,0.28,-0.0036,0.002
4.065e-03,0.26,0.22,-0.002,-0.0084
4.067e-03,0.26,0.28,-0.000400001,0.0028
4.069e-03,0.26,0.22,-0.0028,-0.0076
4.070e-03,0.24,0.28,-0.0036,0.0028
4.072e-03,0.26,0.24,-0.002,-0.0076
4.074e-03,0.26,0.28,-0.0036,0.0028
4.076e-03,0.26,0.22,-0.0036,-0.0068
4.078e-03,0.24,0.28,-0.0044,0.002
4.080e-03,0.24,0.22,-0.0044,-0.0068
4.082e-03,0.26,0.28,-0.000400001,0.0028
4.084e-03,0.26,0.22,-0.0036,-0.0076
4.086e-03,0.26,0.28,-0.0012,0.0028
4.088e-03,0.24,0.22,-0.0028,-0.0084
4.090e-03,0.24,0.26,-0.0036,0.002
4.092e-03,0.26,0.22,-0.0036,-0.0068
4.094e-03,0.24,0.28,-0.002,0.0028
4.095e-03,0.24,0.22,-0.0036,-0.0076
4.097e-03,0.24,0.28,0.002,0.0028
4.099e-03,0.24,0.22,-0.002,-0.0076
4.101e-03,0.24,0.28,-0.0052,0.0028
4.103e-03,0.24,0.22,-0.002,-0.0084
4.105e-03,0.24,0.28,-0.0036,0.0036
4.107e-03,0.24,0.22,-0.0044,-0.0084
4.109e-03,0.24,0.26,-0.0028,0.0028
4.111e-03,0.26,0.22,-0.0036,-0.0076
4.113e-03,0.26,0.26,-0.0028,0.002
4.115e-03,0.24,0.22,-0.002,-0.0076
4.117e-03,0.24,0.26,-0.0036,0.0028
4.118e-03,0.24,0.22,-0.002,-0.0076
4.120e-03,0.24,0.26,-0.002,0.0028
4.122e-03,0.24,0.2,-0.002,-0.0084
4.124e-03,0.24,0.26,-0.0012,0.002
4.126e-03,0.24,0.2,-0.002,-0.0076
4.128e-03,0.26,0.26,-0.0028,0.0028
4.130e-03,0.24,0.22,-0.002,-0.0076
4.132e-03,0.24,0.26,-0.0012,0.0044
4.134e-03,0.24,0.2,-0.0052,-0.0076
4.136e-03,0.24,0.26,0.000399999,0.002
4.138e-03,0.24,0.2,-0.0028,-0.0084
4.140e-03,0.24,0.26,-0.0012,0.0036
4.142e-03,0.24,0.2,-0.0012,-0.0076
4.143e-03,0.24,0.26,-0.0044,0.0036
4.145e-03,0.22,0.2,-0.002,-0.0084
4.147e-03,0.24,0.26,-0.000400001,0.0036
4.149e-03,0.24,0.2,-0.0028,-0.0084
4.151e-03,0.22,0.26,-0.0044,0.0028
4.153e-03,0.24,0.2,-0.0052,-0.0076
4.155e-03,0.24,0.26,-0.0012,0.002
4.157e-03,0.24,0.2,-0.0012,-0.0084
4.159e-03,0.24,0.26,-0.0012,0.0028
4.161e-03,0.24,0.2,0.000399999,-0.0076
4.163e-03,0.24,0.26,-0.0012,0.0028
4.165e-03,0.22,0.2,-0.0036,-0.0068
4.166e-03,0.22,0.26,-0.0044,0.0036
4.168e-03,0.22,0.2,-0.002,-0.0084
4.170e-03,0.24,0.24,-0.002,0.0028
4.172e-03,0.24,0.2,-0.0012,-0.0076
4.174e-03,0.24,0.24,-0.0036,0.0028
4.176e-03,0.22,0.2,-0.0028,-0.0076
4.178e-03,0.22,0.24,-0.0012,0.0036
4.180e-03,0.22,0.2,0.000399999,-0.0092
4.182e-03,0.22,0.24,-0.002,0.002
4.184e-03,0.22,0.2,-0.0036,-0.0084
4.186e-03,0.22,0.24,-0.0036,0.0028
4.188e-03,0.22,0.2,-0.0028,-0.0084
4.190e-03,0.22,0.24,-0.0028,0.002
4.191e-03,0.22,0.2,-0.0028,-0.006
4.193e-03,0.22,0.24,-0.0012,0.0044
4.195e-03,0.22,0.2,-0.0068,-0.0076
4.197e-03,0.22,0.24,-0.0028,0.0028
4.199e-03,0.22,0.18,-0.0028,-0.0084
4.201e-03,0.2,0.24,-0.0012,0.0036
4.203e-03,0.2,0.18,0.000399999,-0.0076
4.205e-03,0.22,0.24,-0.0028,0.0028
4.207e-03,0.22,0.18,-0.000400001,-0.0076
4.209e-03,0.22,0.24,-0.0028,0.0028
4.211e-03,0.24,0.18,-0.002,-0.0076
4.213e-03,0.22,0.24,-0.0028,0.0028
4.214e-03,0.22,0.18,-0.0036,-0.0076
4.216e-03,0.2,0.24,-0.0036,0.0044
4.218e-03,0.22,0.18,-0.002,-0.0084
4.220e-03,0.22,0.24,-0.0028,0.002
4.222e-03,0.22,0.2,-0.0028,-0.0068
4.224e-03,0.2,0.24,-0.0028,0.0028
4.226e-03,0.2,0.18,-0.0044,-0.0076
4.228e-03,0.22,0.24,-0.0036,0.0044
4.230e-03,0.2,0.18,-0.0028,-0.0076
4.232e-03,0.22,0.24,-0.0036,0.0028
4.234e-03,0.2,0.18,-0.002,-0.0076
4.236e-03,0.2,0.24,-0.0052,0.002
4.238e-03,0.2,0.18,-0.0028,-0.0084
4.239e-03,0.2,0.24,-0.0044,0.002
4.241e-03,0.2,0.18,-0.000400001,-0.0068
4.243e-03,0.22,0.24,-0.000400001,0.0028
4.245e-03,0.22,0.16,-0.0028,-0.0068
4.247e-03,0.2,0.22,-0.0036,0.0028
4.249e-03,0.18,0.18,-0.0044,-0.0084
4.251e-03,0.22,0.24,0.000399999,0.0028
4.253e-03,0.2,0.18,-0.0028,-0.0068
4.255e-03,0.2,0.22,-0.000400001,0.002
4.257e-03,0.2,0.16,-0.002,-0.0076
4.259e-03,0.22,0.22,-0.002,0.0028
4.261e-03,0.2,0.18,-0.0036,-0.0084
4.262e-03,0.2,0.22,-0.0036,0.0028
4.264e-03,0.2,0.18,-0.002,-0.0084
4.266e-03,0.2,0.22,-0.0036,0.0052
4.268e-03,0.22,0.16,-0.000400001,-0.0084
4.270e-03,0.2,0.22,-0.0044,0.002
4.272e-03,0.2,0.18,-0.0036,-0.0076
4.274e-03,0.22,0.22,-0.0028,0.0036
4.276e-03,0.2,0.16,-0.002,-0.0084
4.278e-03,0.2,0.22,-0.0028,0.002
4.280e-03,0.2,0.18,-0.0012,-0.0084
4.282e-03,0.2,0.22,-0.0044,0.0044
4.284e-03,0.2,0.18,-0.0044,-0.0084
4.286e-03,0.2,0.22,-0.002,0.0036
4.287e-03,0.18,0.16,-0.0012,-0.0076
4.289e-03,0.2,0.22,-0.0028,0.002
4.291e-03,0.2,0.16,-0.0028,-0.0084
4.293e-03,0.2,0.22,-0.0012,0.0028
4.295e-03,0.2,0.16,-0.0036,-0.0084
4.297e-03,0.18,0.22,-0.0068,0.0036
4.299e-03,0.18,0.16,-0.006,-0.0068
4.301e-03,0.18,0.22,-0.0028,0.0036
4.303e-03,0.18,0.16,-0.0028,-0.0076
4.305e-03,0.2,0.22,-0.0036,0.0028
4.307e-03,0.18,0.16,-0.0044,-0.0076
4.309e-03,0.18,0.22,-0.0044,0.0028
4.310e-03,0.18,0.16,-0.0028,-0.0068
4.312e-03,0.2,0.22,-0.0012,0.002
4.314e-03,0.18,0.16,-0.0012,-0.0068
4.316e-03,0.18,0.2,-0.0028,0.0028
4.318e-03,0.18,0.16,-0.000400001,-0.0076
4.320e-03,0.18,0.2,-0.0012,0.0028
4.322e-03,0.2,0.14,0.000399999,-0.0084
4.324e-03,0.18,0.2,-0.0036,0.002
4.326e-03,0.18,0.14,-0.0012,-0.0076
4.328e-03,0.18,0.2,-0.0044,0.0028
4.330e-03,0.18,0.16,-0.0044,-0.0084
4.332e-03,0.2,0.2,-0.0028,0.0036
4.334e-03,0.18,0.16,-0.0036,-0.0076
4.335e-03,0.18,0.2,-0.006,0.0036
4.337e-03,0.18,0.16,-0.0012,-0.0076
4.339e-03,0.18,0.2,0.000399999,0.0028
4.341e-03,0.18,0.14,-0.0028,-0.0084
4.343e-03,0.18,0.2,-0.0044,0.0028
4.345e-03,0.2,0.16,-0.000400001,-0.0076
4.347e-03,0.18,0.2,-0.000400001,0.0028
4.349e-03,0.16,0.14,-0.0036,-0.0084
4.351e-03,0.16,0.2,-0.0036,0.0028
4.353e-03,0.16,0.14,-0.0052,-0.0084
4.355e-03,0.16,0.2,-0.0012,0.0028
4.357e-03,0.18,0.14,-0.0036,-0.0076
4.358e-03,0.18,0.2,-0.0044,0.0028
4.360e-03,0.18,0.14,-0.0044,-0.0076
4.362e-03,0.16,0.2,-0.0036,0.002
4.364e-03,0.18,0.14,-0.0028,-0.0092
4.366e-03,0.18,0.2,-0.002,0.0028
4.368e-03,0.18,0.14,-0.002,-0.0076
4.370e-03,0.16,0.2,-0.0028,0.002
4.372e-03,0.18,0.14,-0.0012,-0.0068
4.374e-03,0.16,0.2,-0.0028,0.0028
4.376e-03,0.18,0.14,-0.0012,-0.0068
4.378e-03,0.18,0.2,-0.0036,0.0028
4.380e-03,0.16,0.14,-0.0044,-0.0076
4.382e-03,0.18,0.2,-0.0028,0.0036
4.383e-03,0.16,0.14,-0.0028,-0.0076
4.385e-03,0.18,0.18,-0.0036,0.0044
4.387e-03,0.16,0.14,-0.0036,-0.0068
4.389e-03,0.18,0.2,-0.0012,0.002
4.391e-03,0.16,0.14,-0.002,-0.0076
4.393e-03,0.16,0.18,-0.000400001,0.0028
4.395e-03,0.16,0.14,-0.0036,-0.0068
4.397e-03,0.16,0.18,-0.0028,0.0028
4.399e-03,0.16,0.14,-0.0012,-0.0084
4.401e-03,0.16,0.18,-0.0012,0.0028
4.403e-03,0.18,0.14,-0.0036,-0.0076
4.405e-03,0.16,0.2,-0.0052,0.0028
4.406e-03,0.18,0.14,-0.002,-0.0068
4.408e-03,0.14,0.18,-0.000400001,0.0028
4.410e-03,0.16,0.14,-0.0012,-0.0076
4.412e-03,0.16,0.18,-0.002,0.002
4.414e-03,0.16,0.14,-0.000400001,-0.0092
4.416e-03,0.14,0.18,-0.0028,0.0028
4.418e-03,0.16,0.12,-0.002,-0.0076
4.420e-03,0.16,0.18,-0.002,0.0028
4.422e-03,0.16,0.12,0.000399999,-0.0076
4.424e-03,0.14,0.18,-0.0036,0.0028
4.426e-03,0.16,0.12,-0.0028,-0.0076
4.428e-03,0.16,0.18,-0.0028,0.0036
4.430e-03,0.16,0.12,-0.0012,-0.0068
4.431e-03,0.16,0.18,-0.0044,0.0028
4.433e-03,0.14,0.12,-0.0036,-0.0084
4.435e-03,0.16,0.18,-0.0028,0.002
4.437e-03,0.16,0.12,-0.000400001,-0.0068
4.439e-03,0.16,0.18,-0.000400001,0.0028
4.441e-03,0.16,0.12,-0.0028,-0.0084
4.443e-03,0.16,0.18,-0.0036,0.0028
4.445e-03,0.16,0.12,-0.002,-0.0076
4.447e-03,0.14,0.18,-0.0036,0.0044
4.449e-03,0.14,0.12,-0.0044,-0.0084
4.451e-03,0.14,0.18,-0.0044,0.0028
4.453e-03,0.14,0.12,-0.0028,-0.0076
4.454e-03,0.16,0.18,-0.0012,0.0028
4.456e-03,0.14,0.12,-0.0028,-0.0084
4.458e-03,0.14,0.18,-0.0052,0.0036
4.460e-03,0.14,0.12,0.000399999,-0.0076
4.462e-03,0.14,0.18,-0.0012,0.0028
4.464e-03,0.16,0.12,-0.006,-0.0068
4.466e-03,0.14,0.18,-0.0012,0.0028
4.468e-03,0.16,0.12,-0.0036,-0.0084
4.470e-03,0.14,0.18,-0.0028,0.0028
4.472e-03,0.16,0.12,0.000399999,-0.0076
4.474e-03,0.14,0.18,-0.0028,0.0028
4.476e-03,0.14,0.12,-0.002,-0.0068
4.478e-03,0.14,0.16,-0.0044,0.0028
4.479e-03,0.14,0.12,-0.0036,-0.0076
4.481e-03,0.14,0.16,-0.0012,0.0036
4.483e-03,0.14,0.12,-0.0012,-0.0076
4.485e-03,0.14,0.16,-0.0028,0.0036
4.487e-03,0.12,0.12,-0.0028,-0.0084
4.489e-03,0.14,0.16,-0.0036,0.0028
4.491e-03,0.14,0.12,-0.0028,-0.0084
4.493e-03,0.14,0.16,-0.006,0.0012
4.495e-03,0.14,0.1,-0.0036,-0.0092
4.497e-03,0.14,0.16,-0.0044,0.0036
4.499e-03,0.14,0.1,-0.0012,-0.0076
4.501e-03,0.12,0.16,-0.0028,0.0028
4.502e-03,0.14,0.1,-0.002,-0.0076
4.504e-03,0.14,0.16,-0.0012,0.0028
4.506e-03,0.12,0.1,-0.0028,-0.0076
4.508e-03,0.12,0.16,-0.0028,0.002
4.510e-03,0.14,0.1,-0.000400001,-0.0084
4.512e-03,0.14,0.16,-0.0028,0.0028
4.514e-03,0.14,0.1,-0.000400001,-0.0068
4.516e-03,0.12,0.16,-0.002,0.002
4.518e-03,0.12,0.1,-0.0012,-0.0084
4.520e-03,0.14,0.16,-0.0036,0.0028
4.522e-03,0.14,0.1,-0.0012,-0.0068
4.524e-03,0.12,0.16,-0.0012,0.0036
4.526e-03,0.14,0.1,-0.0036,-0.0068
4.527e-03,0.12,0.16,-0.0036,0.0028
4.529e-03,0.14,0.1,-0.002,-0.0068
4.531e-03,0.14,0.16,-0.000400001,0.0028
4.533e-03,0.12,0.1,-0.0036,-0.006
4.535e-03,0.12,0.16,-0.0036,0.0036
4.537e-03,0.12,0.1,-0.0012,-0.0068
4.539e-03,0.14,0.14,-0.002,0.0036
4.541e-03,0.14,0.1,0.0012,-0.0076
4.543e-03,0.12,0.16,-0.002,0.0036
4.545e-03,0.12,0.1,-0.002,-0.0068
4.547e-03,0.12,0.14,-0.0036,0.0044
4.549e-03,0.1,0.1,-0.0036,-0.0076
4.550e-03,0.12,0.14,-0.0012,0.0036
4.552e-03,0.12,0.1,-0.0012,-0.0076
4.554e-03,0.12,0.14,-0.000400001,0.0036
4.556e-03,0.12,0.08,-0.002,-0.0068
4.558e-03,0.12,0.14,0.002,0.0028
4.560e-03,0.12,0.1,-0.0044,-0.006
4.562e-03,0.12,0.14,-0.002,0.0036
4.564e-03,0.12,0.1,-0.0028,-0.006
4.566e-03,0.12,0.14,-0.000400001,0.0036
4.568e-03,0.1,0.08,-0.002,-0.0068
4.570e-03,0.12,0.14,-0.0012,0.0044
4.572e-03,0.12,0.08,-0.0028,-0.0068
4.574e-03,0.12,0.14,-0.002,0.0044
4.575e-03,0.1,0.08,0.000399999,-0.0068
4.577e-03,0.12,0.14,-0.000400001,0.0044
4.579e-03,0.12,0.1,-0.0012,-0.0068
4.581e-03,0.12,0.14,-0.0028,0.0044
4.583e-03,0.12,0.08,-0.002,-0.0068
4.585e-03,0.1,0.14,0.000399999,0.0044
4.587e-03,0.1,0.08,-0.0036,-0.0068
4.589e-03,0.1,0.14,-0.0028,0.0044
4.591e-03,0.1,0.08,-0.002,-0.0076
4.593e-03,0.12,0.12,-0.0052,0.0044
4.595e-03,0.1,0.08,-0.002,-0.0068
4.597e-03,0.12,0.14,-0.006,0.0044
4.598e-03,0.12,0.08,0.000399999,-0.0068
4.600e-03,0.1,0.14,-0.0028,0.0036
4.602e-03,0.12,0.08,-0.0036,-0.0068
4.604e-03,0.1,0.14,-0.002,0.0044
4.606e-03,0.1,0.08,-0.0028,-0.0068
4.608e-03,0.12,0.14,-0.0028,0.0044
4.610e-03,0.1,0.08,-0.0028,-0.006
4.612e-03,0.1,0.12,-0.000400001,0.0044
4.614e-03,0.12,0.08,-0.0012,-0.006
4.616e-03,0.12,0.14,0.002,0.0044
4.618e-03,0.1,0.08,-0.0012,-0.0052
4.620e-03,0.12,0.14,-0.0028,0.0044
4.622e-03,0.1,0.08,0.0028,-0.0052
4.623e-03,0.1,0.14,-0.000400001,0.0052
4.625e-03,0.1,0.08,0.002,-0.006
4.627e-03,0.08,0.12,0.0012,0.006
4.629e-03,0.1,0.08,-0.000400001,-0.0052
4.631e-03,0.1,0.12,0.002,0.006
4.633e-03,0.1,0.08,-0.0012,-0.0036
4.635e-03,0.1,0.12,0.002,0.0068
4.637e-03,0.1,0.08,0.0012,-0.0028
4.639e-03,0.08,0.12,0.0036,0.0084
4.641e-03,0.1,0.06,0.002,-0.0028
4.643e-03,0.1,0.12,0.0044,0.0084
4.645e-03,0.1,0.06,0.0052,-0.0012
4.646e-03,0.1,0.12,0.0044,0.0092
4.648e-03,0.1,0.08,0.0076,-0.000400001
4.650e-03,0.1,0.12,0.0068,0.0108
4.652e-03,0.12,0.06,0.014,0.002
4.654e-03,0.1,0.12,0.0068,0.0148
4.656e-03,0.08,0.06,0.0092,0.0036
4.658e-03,0.08,0.12,0.01,0.0164
4.660e-03,0.08,0.06,0.0124,0.006
4.662e-03,0.1,0.12,0.0148,0.0188
4.664e-03,0.1,0.08,0.0156,0.01
4.666e-03,0.08,0.12,0.018,0.0228
4.668e-03,0.12,0.06,0.0244,0.0148
4.670e-03,0.1,0.12,0.022,0.0268
4.671e-03,0.12,0.06,0.0244,0.0188
4.673e-03,0.1,0.12,0.0268,0.0292
4.675e-03,0.1,0.06,0.0268,0.0196
4.677e-03,0.08,0.12,0.0252,0.03
4.679e-03,0.08,0.06,0.026,0.0196
4.681e-03,0.1,0.12,0.0252,0.03
4.683e-03,0.08,0.06,0.0196,0.0164
4.685e-03,0.08,0.12,0.0212,0.0276
4.687e-03,0.1,0.06,0.0196,0.0124
4.689e-03,0.08,0.12,0.0124,0.0252
4.691e-03,0.08,0.06,0.0132,0.0076
4.693e-03,0.08,0.12,0.0132,0.0196
4.695e-03,0.1,0.06,0.0108,0.0044
4.696e-03,0.08,0.1,0.0124,0.0164
4.698e-03,0.08,0.06,0.0124,0.002
4.700e-03,0.08,0.1,0.0044,0.0132
4.702e-03,0.08,0.06,0.0068,0.0012
4.704e-03,0.08,0.1,0.0052,0.0116
4.706e-03,0.08,0.06,0.0028,-0.0012
4.708e-03,0.08,0.1,0.0044,0.01
4.710e-03,0.08,0.06,0.0052,-0.002
4.712e-03,0.08,0.1,0.0012,0.0092
4.714e-03,0.08,0.06,-0.000400001,-0.0028
4.716e-03,0.08,0.1,0.0012,0.0068
4.718e-03,0.08,0.04,0.000399999,-0.0036
4.719e-03,0.08,0.1,0.000399999,0.006
4.721e-03,0.08,0.04,0.000399999,-0.0036
4.723e-03,0.08,0.1,0.002,0.0076
4.725e-03,0.08,0.04,0.0036,-0.0036
4.727e-03,0.08,0.12,-0.000400001,0.006
4.729e-03,0.08,0.04,-0.0012,-0.0052
4.731e-03,0.08,0.1,-0.000400001,0.0052
4.733e-03,0.08,0.04,-0.002,-0.0052
4.735e-03,0.06,0.1,-0.0036,0.0044
4.737e-03,0.08,0.04,0.000399999,-0.0052
4.739e-03,0.08,0.1,-0.0012,0.0052
4.741e-03,0.08,0.04,-0.0012,-0.006
4.743e-03,0.08,0.1,-0.000400001,0.0044
4.744e-03,0.08,0.04,-0.0012,-0.0068
4.746e-03,0.06,0.1,-0.0028,0.0036
4.748e-03,0.08,0.04,0.0012,-0.006
4.750e-03,0.08,0.1,0.0012,0.0044
4.752e-03,0.08,0.04,0.000399999,-0.006
4.754e-03,0.08,0.1,-0.0044,0.0036
4.756e-03,0.06,0.04,-0.0036,-0.006
4.758e-03,0.06,0.1,-0.0028,0.0044
4.760e-03,0.08,0.04,-0.000400001,-0.006
4.762e-03,0.06,0.1,-0.0052,0.0028
4.764e-03,0.06,0.04,-0.0028,-0.0068
4.766e-03,0.06,0.08,-0.002,0.0036
4.767e-03,0.06,0.04,-0.0028,-0.0076
4.769e-03,0.08,0.1,-0.002,0.0044
4.771e-03,0.08,0.04,-0.0012,-0.0068
4.773e-03,0.06,0.08,-0.002,0.0028
4.775e-03,0.06,0.04,-0.000400001,-0.0084
4.777e-03,0.06,0.08,-0.0028,0.0028
4.779e-03,0.06,0.04,-0.000400001,-0.0076
4.781e-03,0.08,0.08,-0.002,0.0036
4.783e-03,0.06,0.04,-0.0028,-0.0076
4.785e-03,0.06,0.08,-0.0012,0.0028
4.787e-03,0.06,0.04,-0.0012,-0.0076
4.789e-03,0.06,0.08,-0.0012,0.0036
4.791e-03,0.06,0.04,-0.0012,-0.0084
4.792e-03,0.06,0.08,-0.002,0.0028
4.794e-03,0.06,0.02,-0.0012,-0.0076
4.796e-03,0.06,0.08,-0.0028,0.002
4.798e-03,0.06,0.04,-0.002,-0.0076
4.800e-03,0.06,0.08,-0.0012,0.0028
4.802e-03,0.08,0.04,-0.002,-0.0076
4.804e-03,0.06,0.08,-0.0036,0.0028
4.806e-03,0.06,0.02,-0.0028,-0.0084
4.808e-03,0.04,0.08,-0.0052,0.0036
4.810e-03,0.06,0.02,-0.002,-0.0076
4.812e-03,0.06,0.08,-0.0012,0.0028
4.814e-03,0.06,0.02,-0.002,-0.0076
4.815e-03,0.06,0.08,-0.000400001,0.0028
4.817e-03,0.04,0.02,-0.0036,-0.0076
4.819e-03,0.06,0.08,-0.0044,0.0028
4.821e-03,0.04,0.02,-0.0036,-0.0076
4.823e-03,0.04,0.08,-0.0028,0.0036
4.825e-03,0.06,0.02,-0.0012,-0.0068
4.827e-03,0.06,0.08,0.000399999,0.0028
4.829e-03,0.06,0.02,-0.0036,-0.0076
4.831e-03,0.06,0.08,-0.0036,0.0028
4.833e-03,0.06,0.02,-0.0036,-0.0068
4.835e-03,0.04,0.08,-0.0052,0.002
4.837e-03,0.04,0.02,-0.002,-0.0068
4.839e-03,0.04,0.08,-0.0028,0.0028
4.840e-03,0.06,0.02,0.0012,-0.0084
4.842e-03,0.04,0.06,-0.0028,0.0028
4.844e-03,0.04,0.02,-0.0012,-0.0076
4.846e-03,0.04,0.06,-0.0012,0.0028
4.848e-03,0.04,0.02,-0.0012,-0.0092
4.850e-03,0.04,0.08,-0.0012,0.0028
4.852e-03,0.04,0.02,-0.0036,-0.0076
4.854e-03,0.04,0.06,-0.002,0.0028
4.856e-03,0.04,0.02,-0.0028,-0.0076
4.858e-03,0.04,0.06,-0.002,0.0036
4.860e-03,0.04,0.02,-0.0052,-0.0068
4.862e-03,0.04,0.06,-0.0028,0.0028
4.863e-03,0.04,0.02,-0.002,-0.0076
4.865e-03,0.04,0.06,-0.0036,0.0036
4.867e-03,0.06,0,-0.0044,-0.0076
4.869e-03,0.06,0.06,-0.0012,0.0028
4.871e-03,0.04,0.02,-0.0028,-0.0076
4.873e-03,0.04,0.06,-0.0044,0.0028
4.875e-03,0.04,0,-0.006,-0.0068
4.877e-03,0.04,0.06,-0.0012,0.0028
4.879e-03,0.04,0,-0.0028,-0.0084
4.881e-03,0.04,0.06,-0.0044,0.002
4.883e-03,0.04,0,-0.0012,-0.0076
4.885e-03,0.04,0.06,-0.0036,0.002
4.887e-03,0.04,0.02,-0.0028,-0.0076
4.888e-03,0.02,0.06,-0.002,0.002
4.890e-03,0.04,0,-0.0012,-0.0076
4.892e-03,0.04,0.06,-0.0036,0.0028
4.894e-03,0.04,0,-0.002,-0.0076
4.896e-03,0.04,0.06,0.0012,0.0028
4.898e-03,0.02,0,-0.0052,-0.0084
4.900e-03,0.02,0.06,-0.0028,0.0028
4.902e-03,0.04,0,-0.0012,-0.0116
4.904e-03,0.04,0.06,-0.0044,0.0028
4.906e-03,0.04,0,-0.000400001,-0.0068
4.908e-03,0.02,0.06,-0.0012,0.0036
4.910e-03,0.02,0,-0.0028,-0.0076
4.911e-03,0.02,0.06,-0.0044,0.0028
4.913e-03,0.04,0,-0.0036,-0.0084
4.915e-03,0.04,0.04,-0.0036,0.0028
4.917e-03,0.02,0,-0.0028,-0.0068
4.919e-03,0.02,0.04,-0.0028,0.0028
4.921e-03,0.04,0,-0.002,-0.0092
4.923e-03,0.02,0.04,-0.0036,0.0028
4.925e-03,0.02,-0.02,-0.0028,-0.0084
4.927e-03,0.04,0.04,-0.0068,0.002
4.929e-03,0.04,0,-0.0036,-0.0092
4.931e-03,0.02,0.04,-0.0092,0.0028
4.933e-03,0.02,0,-0.0012,-0.0084
4.935e-03,0.02,0.04,-0.0012,0.002
4.936e-03,0.02,0,-0.0036,-0.0084
4.938e-03,0.02,0.04,-0.0044,0.002
4.940e-03,0.02,0,-0.0052,-0.0076
4.942e-03,0.02,0.04,-0.002,0.0036
4.944e-03,0,-0.02,-0.0036,-0.0084
4.946e-03,0.02,0.04,-0.0012,0.0036
4.948e-03,0.02,-0.02,-0.0028,-0.0084
4.950e-03,0.02,0.04,-0.0036,0.002
4.952e-03,0.02,-0.02,0.000399999,-0.0084
4.954e-03,0.02,0.04,-0.000400001,0.0028
4.956e-03,0.02,-0.02,-0.002,-0.0084
4.958e-03,0.02,0.04,-0.0036,0.002
4.959e-03,0.02,-0.02,-0.0044,-0.0076
4.961e-03,0.02,0.04,-0.0028,0.002
4.963e-03,0.02,-0.02,-0.002,-0.0076
4.965e-03,0.02,0.04,-0.000400001,0.0028
4.967e-03,0.02,-0.02,-0.006,-0.0084
4.969e-03,0.02,0.04,-0.0036,0.0012
4.971e-03,0.02,-0.02,-0.0028,-0.0084
4.973e-03,0.02,0.04,-0.0012,0.002
4.975e-03,0,-0.02,-0.0012,-0.0084
4.977e-03,0.02,0.04,-0.0028,0.0028
4.979e-03,0,-0.02,-0.0036,-0.0068
4.981e-03,0.02,0.04,-0.0028,0.0028
4.983e-03,0,-0.02,-0.0036,-0.0068
4.984e-03,0,0.04,-0.0012,0.0028
4.986e-03,0,-0.02,-0.0044,-0.0068
4.988e-03,0,0.04,-0.0012,0.0036
4.990e-03,0,-0.02,-0.0044,-0.0084
4.992e-03,0,0.04,-0.0036,0.0036
4.994e-03,0,-0.02,-0.0036,-0.0084
4.996e-03,0,0.02,-0.0036,0.0028
4.998e-03,0,-0.02,-0.002,-0.0068
5.000e-03,0,0.02,-0.000400001,0.0036
5.002e-03,0,-0.02,-0.0028,-0.0068
5.004e-03,0,0.04,-0.0012,0.0036
5.006e-03,0,-0.02,-0.000400001,-0.0076
5.007e-03,0,0.02,-0.0012,0.002
5.009e-03,0,-0.04,-0.0012,-0.0076
5.011e-03,-0.02,0.02,-0.0036,0.0036
5.013e-03,0,-0.04,-0.0044,-0.0076
5.015e-03,0,0.02,-0.000400001,0.0028
5.017e-03,0,-0.02,-0.0028,-0.0076
5.019e-03,0,0.02,-0.0028,0.0036
5.021e-03,0,-0.04,-0.0036,-0.0084
5.023e-03,-0.02,0.02,-0.0028,0.002
5.025e-03,0,-0.04,-0.0012,-0.0076
5.027e-03,0,0.02,-0.000400001,0.0028
5.029e-03,0,-0.04,-0.0036,-0.0076
5.031e-03,0,0.02,-0.0036,0.0028
5.032e-03,0,-0.04,-0.0052,-0.0076
5.034e-03,-0.02,0.02,-0.0036,0.0028
5.036e-03,0,-0.04,-0.0036,-0.0076
5.038e-03,0,0.02,-0.0036,0.0028
5.040e-03,0.02,-0.04,-0.0028,-0.0092
5.042e-03,-0.02,0.02,-0.0028,0.0036
5.044e-03,-0.02,-0.04,-0.0044,-0.0084
5.046e-03,0,0.02,-0.0036,0.002
5.048e-03,0,-0.04,-0.0044,-0.0084
5.050e-03,0,0.02,-0.0028,0.0028
5.052e-03,-0.02,-0.04,-0.0028,-0.0084
5.054e-03,-0.02,0.02,0.0028,0.0036
5.055e-03,0,-0.04,-0.0036,-0.0084
5.057e-03,0,0.02,-0.0028,0.0036
5.059e-03,-0.02,-0.04,-0.002,-0.0068
5.061e-03,-0.02,0.02,-0.002,0.002
5.063e-03,-0.02,-0.04,-0.0052,-0.0076
5.065e-03,-0.02,0.02,-0.0012,0.002
5.067e-03,0,-0.04,-0.0044,-0.0068
5.069e-03,-0.02,0.02,-0.0036,0.0028
5.071e-03,0,-0.04,-0.002,-0.0076
5.073e-03,-0.02,0.02,-0.002,0.0028
5.075e-03,-0.02,-0.04,-0.000400001,-0.0092
5.077e-03,-0.02,0.02,-0.0028,0.0028
5.079e-03,-0.02,-0.06,-0.0028,-0.0084
5.080e-03,-0.02,0,-0.002,0.002
5.082e-03,-0.02,-0.04,-0.0036,-0.0076
5.084e-03,-0.02,0,-0.0036,0.0036
5.086e-03,-0.02,-0.04,-0.000400001,-0.0076
5.088e-03,-0.02,0,-0.0028,0.0036
5.090e-03,-0.02,-0.06,-0.000400001,-0.0076
5.092e-03,0,0,-0.000400001,0.0036
5.094e-03,-0.02,-0.06,-0.002,-0.0068
5.096e-03,-0.02,0,-0.0028,0.002
5.098e-03,-0.02,-0.04,0.0012,-0.0092
5.100e-03,0,0,-0.0052,0.0028
5.102e-03,-0.02,-0.06,-0.0012,-0.0076
5.103e-03,-0.02,0,-0.002,0.002
5.105e-03,-0.02,-0.06,-0.0044,-0.0068
5.107e-03,-0.02,0,-0.0012,0.002
5.109e-03,-0.02,-0.06,-0.0012,-0.0076
5.111e-03,0,0,-0.0028,0.0028
5.113e-03,-0.02,-0.06,-0.006,-0.0084
5.115e-03,-0.02,0,0.0012,0.002
5.117e-03,-0.02,-0.06,-0.0028,-0.0068
5.119e-03,-0.02,0,-0.0028,0.002
5.121e-03,-0.02,-0.06,-0.002,-0.0076
5.123e-03,-0.02,0,-0.0028,0.0028
5.125e-03,-0.02,-0.06,-0.0012,-0.0068
5.127e-03,-0.02,0,-0.000400001,0.0028
5.128e-03,-0.04,-0.06,-0.0044,-0.0068
5.130e-03,-0.02,0,-0.0028,0.0036
5.132e-03,-0.04,-0.06,-0.0028,-0.0076
5.134e-03,-0.04,0,-0.0012,0.0028
5.136e-03,-0.02,-0.06,-0.0044,-0.0092
5.138e-03,-0.04,-0.02,-0.0012,0.0028
5.140e-03,-0.06,-0.06,-0.0036,-0.0076
5.142e-03,-0.02,0,-0.0028,0.002
5.144e-03,-0.02,-0.06,-0.006,-0.0076
5.146e-03,-0.02,-0.02,-0.0036,0.002
5.148e-03,-0.04,-0.06,-0.0028,-0.0084
5.150e-03,-0.04,0,-0.0044,0.0028
5.151e-03,-0.04,-0.08,-0.002,-0.0076
5.153e-03,-0.02,-0.02,-0.0012,0.0028
5.155e-03,-0.04,-0.06,-0.0028,-0.0084
5.157e-03,-0.04,-0.02,0.000399999,0.0028
5.159e-03,-0.06,-0.06,0.000399999,-0.0084
5.161e-03,-0.04,-0.02,-0.002,0.0036
5.163e-03,-0.04,-0.08,-0.0028,-0.0076
5.165e-03,-0.04,-0.02,-0.0036,0.0028
5.167e-03,-0.02,-0.08,-0.0012,-0.0076
5.169e-03,-0.04,-0.02,0.000399999,0.0028
5.171e-03,-0.02,-0.06,-0.002,-0.0068
5.173e-03,-0.04,-0.02,-0.0028,0.0028
5.175e-03,-0.06,-0.08,-0.002,-0.0076
5.176e-03,-0.04,-0.02,-0.0012,0.0044
5.178e-03,-0.04,-0.08,-0.0012,-0.0076
5.180e-03,-0.04,0,-0.006,0.002
5.182e-03,-0.06,-0.08,-0.0028,-0.0076
5.184e-03,-0.04,-0.02,-0.0012,0.0028
5.186e-03,-0.04,-0.08,-0.0044,-0.0084
5.188e-03,-0.04,-0.02,-0.0044,0.0028
5.190e-03,-0.06,-0.08,-0.0044,-0.0068
5.192e-03,-0.04,-0.02,-0.0012,0.0036
5.194e-03,-0.06,-0.08,-0.0012,-0.0084
5.196e-03,-0.04,-0.02,-0.0068,0.0036
5.198e-03,-0.04,-0.08,-0.0052,-0.0092
5.199e-03,-0.04,-0.02,-0.0068,0.002
5.201e-03,-0.06,-0.08,-0.0036,-0.0076
5.203e-03,-0.06,-0.02,-0.0012,0.0028
5.205e-03,-0.04,-0.08,-0.0012,-0.0076
5.207e-03,-0.06,-0.02,-0.0012,0.0028
5.209e-03,-0.06,-0.08,-0.0036,-0.0084
5.211e-03,-0.06,-0.02,-0.0028,0.0028
5.213e-03,-0.06,-0.08,0.000399999,-0.0084
5.215e-03,-0.04,-0.02,-0.0052,0.0028
5.217e-03,-0.04,-0.08,-0.0028,-0.0076
5.219e-03,-0.06,-0.02,-0.0028,0.0036
5.221e-03,-0.04,-0.08,-0.0036,-0.0084
5.223e-03,-0.04,-0.02,-0.000400001,0.002
5.224e-03,-0.04,-0.08,-0.0044,-0.0084
5.226e-03,-0.06,-0.02,-0.0052,0.002
5.228e-03,-0.06,-0.08,-0.0028,-0.0084
5.230e-03,-0.06,-0.02,-0.000400001,0.002
5.232e-03,-0.04,-0.1,-0.0044,-0.0068
5.234e-03,-0.06,-0.02,-0.0052,0.002
5.236e-03,-0.06,-0.08,-0.0044,-0.0076
5.238e-03,-0.06,-0.04,-0.0044,0.002
5.240e-03,-0.06,-0.1,-0.0028,-0.0076
5.242e-03,-0.06,-0.02,-0.0036,0.0028
5.244e-03,-0.04,-0.08,-0.0068,-0.0084
5.246e-03,-0.06,-0.04,-0.0044,0.002
5.247e-03,-0.06,-0.08,-0.006,-0.0076
5.249e-03,-0.04,-0.04,-0.0044,0.0028
5.251e-03,-0.08,-0.08,-0.0044,-0.0076
5.253e-03,-0.06,-0.04,-0.002,0.002
5.255e-03,-0.08,-0.1,-0.0036,-0.0084
5.257e-03,-0.04,-0.04,-0.0036,0.0036
5.259e-03,-0.06,-0.1,-0.0012,-0.0076
5.261e-03,-0.04,-0.04,-0.0028,0.0036
5.263e-03,-0.06,-0.08,0.000399999,-0.0092
5.265e-03,-0.08,-0.04,-0.0028,0.0036
5.267e-03,-0.08,-0.1,-0.002,-0.0076
5.269e-03,-0.06,-0.04,-0.0036,0.0028
5.271e-03,-0.06,-0.1,-0.0044,-0.0076
5.272e-03,-0.06,-0.04,-0.0012,0.002
5.274e-03,-0.06,-0.1,-0.0012,-0.0084
5.276e-03,-0.06,-0.04,-0.0028,0.0028
5.278e-03,-0.08,-0.1,-0.0028,-0.0084
5.280e-03,-0.06,-0.04,-0.0028,0.0044
5.282e-03,-0.06,-0.1,-0.0036,-0.0084
5.284e-03,-0.06,-0.04,-0.0028,0.0028
5.286e-03,-0.06,-0.1,-0.0028,-0.0084
5.288e-03,-0.06,-0.04,-0.000400001,0.0028
5.290e-03,-0.08,-0.1,-0.0012,-0.0068
5.292e-03,-0.06,-0.04,-0.0036,0.0028
5.294e-03,-0.08,-0.1,-0.0052,-0.0084
5.295e-03,-0.06,-0.06,-0.0044,0.0028
5.297e-03,-0.08,-0.1,-0.002,-0.0076
5.299e-03,-0.08,-0.04,-0.0012,0.002
5.301e-03,-0.06,-0.1,-0.002,-0.0076
5.303e-03,-0.08,-0.04,-0.002,0.0036
5.305e-03,-0.08,-0.12,-0.0044,-0.0084
5.307e-03,-0.08,-0.06,-0.0012,0.0036
5.309e-03,-0.08,-0.1,-0.0012,-0.0084
5.311e-03,-0.08,-0.06,-0.0044,0.002
5.313e-03,-0.08,-0.1,-0.0028,-0.0068
5.315e-03,-0.08,-0.06,-0.0028,0.0036
5.317e-03,-0.06,-0.1,-0.0028,-0.0076
5.319e-03,-0.08,-0.06,-0.0052,0.0028
5.320e-03,-0.08,-0.1,-0.0028,-0.0076
5.322e-03,-0.06,-0.06,-0.002,0.0028
5.324e-03,-0.08,-0.1,-0.0028,-0.0068
5.326e-03,-0.08,-0.06,-0.0028,0.0036
5.328e-03,-0.08,-0.1,-0.0044,-0.0076
5.330e-03,-0.08,-0.04,-0.002,0.0036
5.332e-03,-0.08,-0.12,-0.0044,-0.0084
5.334e-03,-0.08,-0.06,-0.0052,0.0028
5.336e-03,-0.08,-0.1,-0.0012,-0.0068
5.338e-03,-0.1,-0.06,0.0012,0.0036
5.340e-03,-0.08,-0.1,-0.0044,-0.0076
5.342e-03,-0.08,-0.06,-0.0028,0.0028
5.344e-03,-0.08,-0.12,-0.0044,-0.0076
5.345e-03,-0.08,-0.06,-0.0012,0.0028
5.347e-03,-0.08,-0.12,-0.002,-0.0068
5.349e-03,-0.1,-0.06,-0.002,0.0028
5.351e-03,-0.1,-0.12,-0.0028,-0.0068
5.353e-03,-0.08,-0.06,-0.0012,0.0036
5.355e-03,-0.08,-0.12,0.000399999,-0.0092
5.357e-03,-0.1,-0.06,-0.0036,0.0036
5.359e-03,-0.1,-0.12,0.000399999,-0.0084
5.361e-03,-0.08,-0.06,-0.0012,0.0028
5.363e-03,-0.08,-0.12,-0.0012,-0.0068
5.365e-03,-0.08,-0.06,-0.0036,0.0044
5.367e-03,-0.1,-0.12,-0.0028,-0.0076
5.368e-03,-0.1,-0.06,-0.0012,0.0028
5.370e-03,-0.1,-0.12,-0.000400001,-0.0068
5.372e-03,-0.08,-0.06,-0.0036,0.0028
5.374e-03,-0.08,-0.12,-0.0012,-0.0076
5.376e-03,-0.08,-0.06,0.0012,0.0036
5.378e-03,-0.08,-0.12,-0.0036,-0.0068
5.380e-03,-0.1,-0.06,-0.0028,0.0036
5.382e-03,-0.08,-0.12,-0.0044,-0.0084
5.384e-03,-0.08,-0.06,-0.0012,0.0036
5.386e-03,-0.08,-0.12,-0.0012,-0.0068
5.388e-03,-0.08,-0.06,-0.000400001,0.0036
5.390e-03,-0.1,-0.12,-0.002,-0.0076
5.392e-03,-0.1,-0.06,0.0012,0.0028
5.393e-03,-0.1,-0.12,-0.0028,-0.0076
5.395e-03,-0.1,-0.08,-0.0028,0.0028
5.397e-03,-0.08,-0.12,-0.0028,-0.0068
5.399e-03,-0.1,-0.06,0.000399999,0.0028
5.401e-03,-0.1,-0.12,-0.0036,-0.0068
5.403e-03,-0.1,-0.08,-0.0044,0.002
5.405e-03,-0.1,-0.12,-0.0044,-0.0076
5.407e-03,-0.1,-0.06,-0.000400001,0.002
5.409e-03,-0.12,-0.12,0.0012,-0.0068
5.411e-03,-0.1,-0.08,-0.0012,0.0028
5.413e-03,-0.1,-0.12,-0.0052,-0.0076
5.415e-03,-0.12,-0.08,-0.0028,0.0036
5.416e-03,-0.12,-0.12,-0.0012,-0.0084
5.418e-03,-0.1,-0.08,-0.0012,0.0028
5.420e-03,-0.1,-0.12,-0.002,-0.0068
5.422e-03,-0.1,-0.08,-0.0036,0.0036
5.424e-03,-0.1,-0.12,0.000399999,-0.0068
5.426e-03,-0.1,-0.08,-0.0012,0.0052
5.428e-03,-0.1,-0.12,0.0012,-0.0076
5.430e-03,-0.1,-0.08,-0.002,0.0036
5.432e-03,-0.1,-0.14,-0.0028,-0.0076
5.434e-03,-0.1,-0.08,-0.000400001,0.0036
5.436e-03,-0.1,-0.14,-0.0028,-0.0076
5.438e-03,-0.12,-0.08,-0.002,0.0036
5.440e-03,-0.1,-0.14,-0.0044,-0.0068
5.441e-03,-0.12,-0.08,0.0012,0.0036
5.443e-03,-0.1,-0.14,-0.0012,-0.0076
5.445e-03,-0.12,-0.08,-0.000400001,0.0036
5.447e-03,-0.12,-0.14,0.000399999,-0.0068
5.449e-03,-0.12,-0.08,-0.000400001,0.002
5.451e-03,-0.1,-0.14,-0.0012,-0.0084
5.453e-03,-0.12,-0.08,-0.0044,0.0036
5.455e-03,-0.12,-0.14,-0.0012,-0.0068
5.457e-03,-0.12,-0.08,-0.000400001,0.002
5.459e-03,-0.1,-0.14,-0.002,-0.0068
5.461e-03,-0.14,-0.1,-0.0028,0.0036
5.463e-03,-0.12,-0.14,-0.0012,-0.0068
5.464e-03,-0.12,-0.08,-0.006,0.0036
5.466e-03,-0.12,-0.14,-0.0044,-0.0084
5.468e-03,-0.1,-0.08,-0.0036,0.0044
5.470e-03,-0.12,-0.14,-0.0012,-0.0076
5.472e-03,-0.12,-0.1,-0.0012,0.0028
5.474e-03,-0.12,-0.14,-0.0012,-0.0076
5.476e-03,-0.12,-0.1,-0.0036,0.0028
5.478e-03,-0.12,-0.14,-0.0044,-0.006
5.480e-03,-0.12,-0.1,-0.002,0.0036
5.482e-03,-0.12,-0.14,0.0028,-0.0068
5.484e-03,-0.12,-0.1,-0.0012,0.0036
5.486e-03,-0.12,-0.16,0.000399999,-0.0076
5.488e-03,-0.12,-0.1,-0.002,0.0028
5.489e-03,-0.12,-0.16,-0.002,-0.0068
5.491e-03,-0.12,-0.1,-0.0028,0.0036
5.493e-03,-0.12,-0.16,-0.000400001,-0.0068
5.495e-03,-0.12,-0.1,-0.002,0.0036
5.497e-03,-0.12,-0.16,-0.000400001,-0.0076
5.499e-03,-0.12,-0.1,-0.002,0.0044
5.501e-03,-0.12,-0.16,0.002,-0.0068
5.503e-03,-0.14,-0.1,-0.0028,0.0044
5.505e-03,-0.12,-0.16,-0.000400001,-0.0068
5.507e-03,-0.14,-0.1,-0.0036,0.0044
5.509e-03,-0.12,-0.16,-0.0012,-0.0068
5.511e-03,-0.12,-0.1,-0.002,0.0036
5.512e-03,-0.14,-0.16,-0.002,-0.006
5.514e-03,-0.12,-0.1,0.000399999,0.0036
5.516e-03,-0.12,-0.16,0.000399999,-0.0068
5.518e-03,-0.12,-0.1,-0.002,0.0044
5.520e-03,-0.12,-0.16,-0.000400001,-0.0076
5.522e-03,-0.12,-0.1,0.0012,0.0036
5.524e-03,-0.14,-0.16,-0.0028,-0.0068
5.526e-03,-0.14,-0.1,-0.0036,0.0036
5.528e-03,-0.14,-0.16,-0.002,-0.006
5.530e-03,-0.14,-0.12,-0.000400001,0.0044
5.532e-03,-0.14,-0.16,-0.0012,-0.006
5.534e-03,-0.14,-0.1,-0.0028,0.0044
5.536e-03,-0.14,-0.16,-0.000400001,-0.0068
5.537e-03,-0.14,-0.12,-0.0012,0.0044
5.539e-03,-0.14,-0.16,-0.002,-0.006
5.541e-03,-0.14,-0.12,-0.0012,0.0044
5.543e-03,-0.12,-0.16,-0.0012,-0.0068
5.545e-03,-0.14,-0.1,-0.000400001,0.0044
5.547e-03,-0.14,-0.16,-0.002,-0.006
5.549e-03,-0.14,-0.12,-0.002,0.0052
5.551e-03,-0.12,-0.16,-0.0052,-0.006
5.553e-03,-0.16,-0.1,0.0012,0.0028
5.555e-03,-0.14,-0.16,-0.0028,-0.0068
5.557e-03,-0.14,-0.12,0.0012,0.0044
5.559e-03,-0.16,-0.18,-0.002,-0.006
5.560e-03,-0.14,-0.12,-0.000400001,0.0036
5.562e-03,-0.14,-0.16,-0.0028,-0.006
5.564e-03,-0.14,-0.12,-0.0044,0.0044
5.566e-03,-0.12,-0.18,-0.0036,-0.006
5.568e-03,-0.14,-0.12,0.0012,0.0044
5.570e-03,-0.16,-0.18,0.0012,-0.0068
5.572e-03,-0.16,-0.12,-0.002,0.0044
5.574e-03,-0.14,-0.18,-0.000400001,-0.006
5.576e-03,-0.14,-0.12,0.0012,0.0044
5.578e-03,-0.14,-0.18,-0.000400001,-0.006
5.580e-03,-0.14,-0.12,-0.000400001,0.0036
5.582e-03,-0.14,-0.18,-0.000400001,-0.0052
5.584e-03,-0.14,-0.12,0.000399999,0.0052
5.585e-03,-0.16,-0.18,-0.0028,-0.0068
5.587e-03,-0.16,-0.12,-0.0044,0.0044
5.589e-03,-0.14,-0.18,0.000399999,-0.0068
5.591e-03,-0.14,-0.12,-0.0028,0.0044
5.593e-03,-0.16,-0.18,-0.000400001,-0.0068
5.595e-03,-0.14,-0.12,-0.0052,0.0044
5.597e-03,-0.14,-0.18,0.000399999,-0.006
5.599e-03,-0.14,-0.12,0.000399999,0.0044
5.601e-03,-0.14,-0.18,-0.0012,-0.0076
5.603e-03,-0.16,-0.12,0.0012,0.0044
5.605e-03,-0.16,-0.18,-0.0012,-0.006
5.607e-03,-0.14,-0.12,0.002,0.0052
5.608e-03,-0.16,-0.18,-0.000400001,-0.006
5.610e-03,-0.14,-0.12,0.000399999,0.0052
5.612e-03,-0.16,-0.18,-0.0012,-0.0068
5.614e-03,-0.16,-0.12,0.000399999,0.0052
5.616e-03,-0.16,-0.18,-0.002,-0.0052
5.618e-03,-0.16,-0.14,-0.0012,0.0052

